#ifndef _A0IV_H_
#define _A0IV_H_

/* spectrum for a0iv star           */
/* number of elements = 1895       */

static double _a0iv_lambda[] = {
   1150.000000,
   1155.000000,
   1160.000000,
   1165.000000,
   1170.000000,
   1175.000000,
   1180.000000,
   1185.000000,
   1190.000000,
   1195.000000,
   1200.000000,
   1205.000000,
   1210.000000,
   1215.000000,
   1220.000000,
   1225.000000,
   1230.000000,
   1235.000000,
   1240.000000,
   1245.000000,
   1250.000000,
   1255.000000,
   1260.000000,
   1265.000000,
   1270.000000,
   1275.000000,
   1280.000000,
   1285.000000,
   1290.000000,
   1295.000000,
   1300.000000,
   1305.000000,
   1310.000000,
   1315.000000,
   1320.000000,
   1325.000000,
   1330.000000,
   1335.000000,
   1340.000000,
   1345.000000,
   1350.000000,
   1355.000000,
   1360.000000,
   1365.000000,
   1370.000000,
   1375.000000,
   1380.000000,
   1385.000000,
   1390.000000,
   1395.000000,
   1400.000000,
   1405.000000,
   1410.000000,
   1415.000000,
   1420.000000,
   1425.000000,
   1430.000000,
   1435.000000,
   1440.000000,
   1445.000000,
   1450.000000,
   1455.000000,
   1460.000000,
   1465.000000,
   1470.000000,
   1475.000000,
   1480.000000,
   1485.000000,
   1490.000000,
   1495.000000,
   1500.000000,
   1505.000000,
   1510.000000,
   1515.000000,
   1520.000000,
   1525.000000,
   1530.000000,
   1535.000000,
   1540.000000,
   1545.000000,
   1550.000000,
   1555.000000,
   1560.000000,
   1565.000000,
   1570.000000,
   1575.000000,
   1580.000000,
   1585.000000,
   1590.000000,
   1595.000000,
   1600.000000,
   1605.000000,
   1610.000000,
   1615.000000,
   1620.000000,
   1625.000000,
   1630.000000,
   1635.000000,
   1640.000000,
   1645.000000,
   1650.000000,
   1655.000000,
   1660.000000,
   1665.000000,
   1670.000000,
   1675.000000,
   1680.000000,
   1685.000000,
   1690.000000,
   1695.000000,
   1700.000000,
   1705.000000,
   1710.000000,
   1715.000000,
   1720.000000,
   1725.000000,
   1730.000000,
   1735.000000,
   1740.000000,
   1745.000000,
   1750.000000,
   1755.000000,
   1760.000000,
   1765.000000,
   1770.000000,
   1775.000000,
   1780.000000,
   1785.000000,
   1790.000000,
   1795.000000,
   1800.000000,
   1805.000000,
   1810.000000,
   1815.000000,
   1820.000000,
   1825.000000,
   1830.000000,
   1835.000000,
   1840.000000,
   1845.000000,
   1850.000000,
   1855.000000,
   1860.000000,
   1865.000000,
   1870.000000,
   1875.000000,
   1880.000000,
   1885.000000,
   1890.000000,
   1895.000000,
   1900.000000,
   1905.000000,
   1910.000000,
   1915.000000,
   1920.000000,
   1925.000000,
   1930.000000,
   1935.000000,
   1940.000000,
   1945.000000,
   1950.000000,
   1955.000000,
   1960.000000,
   1965.000000,
   1970.000000,
   1975.000000,
   1980.000000,
   1985.000000,
   1990.000000,
   1995.000000,
   2000.000000,
   2005.000000,
   2010.000000,
   2015.000000,
   2020.000000,
   2025.000000,
   2030.000000,
   2035.000000,
   2040.000000,
   2045.000000,
   2050.000000,
   2055.000000,
   2060.000000,
   2065.000000,
   2070.000000,
   2075.000000,
   2080.000000,
   2085.000000,
   2090.000000,
   2095.000000,
   2100.000000,
   2105.000000,
   2110.000000,
   2115.000000,
   2120.000000,
   2125.000000,
   2130.000000,
   2135.000000,
   2140.000000,
   2145.000000,
   2150.000000,
   2155.000000,
   2160.000000,
   2165.000000,
   2170.000000,
   2175.000000,
   2180.000000,
   2185.000000,
   2190.000000,
   2195.000000,
   2200.000000,
   2205.000000,
   2210.000000,
   2215.000000,
   2220.000000,
   2225.000000,
   2230.000000,
   2235.000000,
   2240.000000,
   2245.000000,
   2250.000000,
   2255.000000,
   2260.000000,
   2265.000000,
   2270.000000,
   2275.000000,
   2280.000000,
   2285.000000,
   2290.000000,
   2295.000000,
   2300.000000,
   2305.000000,
   2310.000000,
   2315.000000,
   2320.000000,
   2325.000000,
   2330.000000,
   2335.000000,
   2340.000000,
   2345.000000,
   2350.000000,
   2355.000000,
   2360.000000,
   2365.000000,
   2370.000000,
   2375.000000,
   2380.000000,
   2385.000000,
   2390.000000,
   2395.000000,
   2400.000000,
   2405.000000,
   2410.000000,
   2415.000000,
   2420.000000,
   2425.000000,
   2430.000000,
   2435.000000,
   2440.000000,
   2445.000000,
   2450.000000,
   2455.000000,
   2460.000000,
   2465.000000,
   2470.000000,
   2475.000000,
   2480.000000,
   2485.000000,
   2490.000000,
   2495.000000,
   2500.000000,
   2505.000000,
   2510.000000,
   2515.000000,
   2520.000000,
   2525.000000,
   2530.000000,
   2535.000000,
   2540.000000,
   2545.000000,
   2550.000000,
   2555.000000,
   2560.000000,
   2565.000000,
   2570.000000,
   2575.000000,
   2580.000000,
   2585.000000,
   2590.000000,
   2595.000000,
   2600.000000,
   2605.000000,
   2610.000000,
   2615.000000,
   2620.000000,
   2625.000000,
   2630.000000,
   2635.000000,
   2640.000000,
   2645.000000,
   2650.000000,
   2655.000000,
   2660.000000,
   2665.000000,
   2670.000000,
   2675.000000,
   2680.000000,
   2685.000000,
   2690.000000,
   2695.000000,
   2700.000000,
   2705.000000,
   2710.000000,
   2715.000000,
   2720.000000,
   2725.000000,
   2730.000000,
   2735.000000,
   2740.000000,
   2745.000000,
   2750.000000,
   2755.000000,
   2760.000000,
   2765.000000,
   2770.000000,
   2775.000000,
   2780.000000,
   2785.000000,
   2790.000000,
   2795.000000,
   2800.000000,
   2805.000000,
   2810.000000,
   2815.000000,
   2820.000000,
   2825.000000,
   2830.000000,
   2835.000000,
   2840.000000,
   2845.000000,
   2850.000000,
   2855.000000,
   2860.000000,
   2865.000000,
   2870.000000,
   2875.000000,
   2880.000000,
   2885.000000,
   2890.000000,
   2895.000000,
   2900.000000,
   2905.000000,
   2910.000000,
   2915.000000,
   2920.000000,
   2925.000000,
   2930.000000,
   2935.000000,
   2940.000000,
   2945.000000,
   2950.000000,
   2955.000000,
   2960.000000,
   2965.000000,
   2970.000000,
   2975.000000,
   2980.000000,
   2985.000000,
   2990.000000,
   2995.000000,
   3000.000000,
   3005.000000,
   3010.000000,
   3015.000000,
   3020.000000,
   3025.000000,
   3030.000000,
   3035.000000,
   3040.000000,
   3045.000000,
   3050.000000,
   3055.000000,
   3060.000000,
   3065.000000,
   3070.000000,
   3075.000000,
   3080.000000,
   3085.000000,
   3090.000000,
   3095.000000,
   3100.000000,
   3105.000000,
   3110.000000,
   3115.000000,
   3120.000000,
   3125.000000,
   3130.000000,
   3135.000000,
   3140.000000,
   3145.000000,
   3150.000000,
   3155.000000,
   3160.000000,
   3165.000000,
   3170.000000,
   3175.000000,
   3180.000000,
   3185.000000,
   3190.000000,
   3195.000000,
   3200.000000,
   3205.000000,
   3210.000000,
   3215.000000,
   3220.000000,
   3225.000000,
   3230.000000,
   3235.000000,
   3240.000000,
   3245.000000,
   3250.000000,
   3255.000000,
   3260.000000,
   3265.000000,
   3270.000000,
   3275.000000,
   3280.000000,
   3285.000000,
   3290.000000,
   3295.000000,
   3300.000000,
   3305.000000,
   3310.000000,
   3315.000000,
   3320.000000,
   3325.000000,
   3330.000000,
   3335.000000,
   3340.000000,
   3345.000000,
   3350.000000,
   3355.000000,
   3360.000000,
   3365.000000,
   3370.000000,
   3375.000000,
   3380.000000,
   3385.000000,
   3390.000000,
   3395.000000,
   3400.000000,
   3405.000000,
   3410.000000,
   3415.000000,
   3420.000000,
   3425.000000,
   3430.000000,
   3435.000000,
   3440.000000,
   3445.000000,
   3450.000000,
   3455.000000,
   3460.000000,
   3465.000000,
   3470.000000,
   3475.000000,
   3480.000000,
   3485.000000,
   3490.000000,
   3495.000000,
   3500.000000,
   3505.000000,
   3510.000000,
   3515.000000,
   3520.000000,
   3525.000000,
   3530.000000,
   3535.000000,
   3540.000000,
   3545.000000,
   3550.000000,
   3555.000000,
   3560.000000,
   3565.000000,
   3570.000000,
   3575.000000,
   3580.000000,
   3585.000000,
   3590.000000,
   3595.000000,
   3600.000000,
   3605.000000,
   3610.000000,
   3615.000000,
   3620.000000,
   3625.000000,
   3630.000000,
   3635.000000,
   3640.000000,
   3645.000000,
   3650.000000,
   3655.000000,
   3660.000000,
   3665.000000,
   3670.000000,
   3675.000000,
   3680.000000,
   3685.000000,
   3690.000000,
   3695.000000,
   3700.000000,
   3705.000000,
   3710.000000,
   3715.000000,
   3720.000000,
   3725.000000,
   3730.000000,
   3735.000000,
   3740.000000,
   3745.000000,
   3750.000000,
   3755.000000,
   3760.000000,
   3765.000000,
   3770.000000,
   3775.000000,
   3780.000000,
   3785.000000,
   3790.000000,
   3795.000000,
   3800.000000,
   3805.000000,
   3810.000000,
   3815.000000,
   3820.000000,
   3825.000000,
   3830.000000,
   3835.000000,
   3840.000000,
   3845.000000,
   3850.000000,
   3855.000000,
   3860.000000,
   3865.000000,
   3870.000000,
   3875.000000,
   3880.000000,
   3885.000000,
   3890.000000,
   3895.000000,
   3900.000000,
   3905.000000,
   3910.000000,
   3915.000000,
   3920.000000,
   3925.000000,
   3930.000000,
   3935.000000,
   3940.000000,
   3945.000000,
   3950.000000,
   3955.000000,
   3960.000000,
   3965.000000,
   3970.000000,
   3975.000000,
   3980.000000,
   3985.000000,
   3990.000000,
   3995.000000,
   4000.000000,
   4005.000000,
   4010.000000,
   4015.000000,
   4020.000000,
   4025.000000,
   4030.000000,
   4035.000000,
   4040.000000,
   4045.000000,
   4050.000000,
   4055.000000,
   4060.000000,
   4065.000000,
   4070.000000,
   4075.000000,
   4080.000000,
   4085.000000,
   4090.000000,
   4095.000000,
   4100.000000,
   4105.000000,
   4110.000000,
   4115.000000,
   4120.000000,
   4125.000000,
   4130.000000,
   4135.000000,
   4140.000000,
   4145.000000,
   4150.000000,
   4155.000000,
   4160.000000,
   4165.000000,
   4170.000000,
   4175.000000,
   4180.000000,
   4185.000000,
   4190.000000,
   4195.000000,
   4200.000000,
   4205.000000,
   4210.000000,
   4215.000000,
   4220.000000,
   4225.000000,
   4230.000000,
   4235.000000,
   4240.000000,
   4245.000000,
   4250.000000,
   4255.000000,
   4260.000000,
   4265.000000,
   4270.000000,
   4275.000000,
   4280.000000,
   4285.000000,
   4290.000000,
   4295.000000,
   4300.000000,
   4305.000000,
   4310.000000,
   4315.000000,
   4320.000000,
   4325.000000,
   4330.000000,
   4335.000000,
   4340.000000,
   4345.000000,
   4350.000000,
   4355.000000,
   4360.000000,
   4365.000000,
   4370.000000,
   4375.000000,
   4380.000000,
   4385.000000,
   4390.000000,
   4395.000000,
   4400.000000,
   4405.000000,
   4410.000000,
   4415.000000,
   4420.000000,
   4425.000000,
   4430.000000,
   4435.000000,
   4440.000000,
   4445.000000,
   4450.000000,
   4455.000000,
   4460.000000,
   4465.000000,
   4470.000000,
   4475.000000,
   4480.000000,
   4485.000000,
   4490.000000,
   4495.000000,
   4500.000000,
   4505.000000,
   4510.000000,
   4515.000000,
   4520.000000,
   4525.000000,
   4530.000000,
   4535.000000,
   4540.000000,
   4545.000000,
   4550.000000,
   4555.000000,
   4560.000000,
   4565.000000,
   4570.000000,
   4575.000000,
   4580.000000,
   4585.000000,
   4590.000000,
   4595.000000,
   4600.000000,
   4605.000000,
   4610.000000,
   4615.000000,
   4620.000000,
   4625.000000,
   4630.000000,
   4635.000000,
   4640.000000,
   4645.000000,
   4650.000000,
   4655.000000,
   4660.000000,
   4665.000000,
   4670.000000,
   4675.000000,
   4680.000000,
   4685.000000,
   4690.000000,
   4695.000000,
   4700.000000,
   4705.000000,
   4710.000000,
   4715.000000,
   4720.000000,
   4725.000000,
   4730.000000,
   4735.000000,
   4740.000000,
   4745.000000,
   4750.000000,
   4755.000000,
   4760.000000,
   4765.000000,
   4770.000000,
   4775.000000,
   4780.000000,
   4785.000000,
   4790.000000,
   4795.000000,
   4800.000000,
   4805.000000,
   4810.000000,
   4815.000000,
   4820.000000,
   4825.000000,
   4830.000000,
   4835.000000,
   4840.000000,
   4845.000000,
   4850.000000,
   4855.000000,
   4860.000000,
   4865.000000,
   4870.000000,
   4875.000000,
   4880.000000,
   4885.000000,
   4890.000000,
   4895.000000,
   4900.000000,
   4905.000000,
   4910.000000,
   4915.000000,
   4920.000000,
   4925.000000,
   4930.000000,
   4935.000000,
   4940.000000,
   4945.000000,
   4950.000000,
   4955.000000,
   4960.000000,
   4965.000000,
   4970.000000,
   4975.000000,
   4980.000000,
   4985.000000,
   4990.000000,
   4995.000000,
   5000.000000,
   5005.000000,
   5010.000000,
   5015.000000,
   5020.000000,
   5025.000000,
   5030.000000,
   5035.000000,
   5040.000000,
   5045.000000,
   5050.000000,
   5055.000000,
   5060.000000,
   5065.000000,
   5070.000000,
   5075.000000,
   5080.000000,
   5085.000000,
   5090.000000,
   5095.000000,
   5100.000000,
   5105.000000,
   5110.000000,
   5115.000000,
   5120.000000,
   5125.000000,
   5130.000000,
   5135.000000,
   5140.000000,
   5145.000000,
   5150.000000,
   5155.000000,
   5160.000000,
   5165.000000,
   5170.000000,
   5175.000000,
   5180.000000,
   5185.000000,
   5190.000000,
   5195.000000,
   5200.000000,
   5205.000000,
   5210.000000,
   5215.000000,
   5220.000000,
   5225.000000,
   5230.000000,
   5235.000000,
   5240.000000,
   5245.000000,
   5250.000000,
   5255.000000,
   5260.000000,
   5265.000000,
   5270.000000,
   5275.000000,
   5280.000000,
   5285.000000,
   5290.000000,
   5295.000000,
   5300.000000,
   5305.000000,
   5310.000000,
   5315.000000,
   5320.000000,
   5325.000000,
   5330.000000,
   5335.000000,
   5340.000000,
   5345.000000,
   5350.000000,
   5355.000000,
   5360.000000,
   5365.000000,
   5370.000000,
   5375.000000,
   5380.000000,
   5385.000000,
   5390.000000,
   5395.000000,
   5400.000000,
   5405.000000,
   5410.000000,
   5415.000000,
   5420.000000,
   5425.000000,
   5430.000000,
   5435.000000,
   5440.000000,
   5445.000000,
   5450.000000,
   5455.000000,
   5460.000000,
   5465.000000,
   5470.000000,
   5475.000000,
   5480.000000,
   5485.000000,
   5490.000000,
   5495.000000,
   5500.000000,
   5505.000000,
   5510.000000,
   5515.000000,
   5520.000000,
   5525.000000,
   5530.000000,
   5535.000000,
   5540.000000,
   5545.000000,
   5550.000000,
   5555.000000,
   5560.000000,
   5565.000000,
   5570.000000,
   5575.000000,
   5580.000000,
   5585.000000,
   5590.000000,
   5595.000000,
   5600.000000,
   5605.000000,
   5610.000000,
   5615.000000,
   5620.000000,
   5625.000000,
   5630.000000,
   5635.000000,
   5640.000000,
   5645.000000,
   5650.000000,
   5655.000000,
   5660.000000,
   5665.000000,
   5670.000000,
   5675.000000,
   5680.000000,
   5685.000000,
   5690.000000,
   5695.000000,
   5700.000000,
   5705.000000,
   5710.000000,
   5715.000000,
   5720.000000,
   5725.000000,
   5730.000000,
   5735.000000,
   5740.000000,
   5745.000000,
   5750.000000,
   5755.000000,
   5760.000000,
   5765.000000,
   5770.000000,
   5775.000000,
   5780.000000,
   5785.000000,
   5790.000000,
   5795.000000,
   5800.000000,
   5805.000000,
   5810.000000,
   5815.000000,
   5820.000000,
   5825.000000,
   5830.000000,
   5835.000000,
   5840.000000,
   5845.000000,
   5850.000000,
   5855.000000,
   5860.000000,
   5865.000000,
   5870.000000,
   5875.000000,
   5880.000000,
   5885.000000,
   5890.000000,
   5895.000000,
   5900.000000,
   5905.000000,
   5910.000000,
   5915.000000,
   5920.000000,
   5925.000000,
   5930.000000,
   5935.000000,
   5940.000000,
   5945.000000,
   5950.000000,
   5955.000000,
   5960.000000,
   5965.000000,
   5970.000000,
   5975.000000,
   5980.000000,
   5985.000000,
   5990.000000,
   5995.000000,
   6000.000000,
   6005.000000,
   6010.000000,
   6015.000000,
   6020.000000,
   6025.000000,
   6030.000000,
   6035.000000,
   6040.000000,
   6045.000000,
   6050.000000,
   6055.000000,
   6060.000000,
   6065.000000,
   6070.000000,
   6075.000000,
   6080.000000,
   6085.000000,
   6090.000000,
   6095.000000,
   6100.000000,
   6105.000000,
   6110.000000,
   6115.000000,
   6120.000000,
   6125.000000,
   6130.000000,
   6135.000000,
   6140.000000,
   6145.000000,
   6150.000000,
   6155.000000,
   6160.000000,
   6165.000000,
   6170.000000,
   6175.000000,
   6180.000000,
   6185.000000,
   6190.000000,
   6195.000000,
   6200.000000,
   6205.000000,
   6210.000000,
   6215.000000,
   6220.000000,
   6225.000000,
   6230.000000,
   6235.000000,
   6240.000000,
   6245.000000,
   6250.000000,
   6255.000000,
   6260.000000,
   6265.000000,
   6270.000000,
   6275.000000,
   6280.000000,
   6285.000000,
   6290.000000,
   6295.000000,
   6300.000000,
   6305.000000,
   6310.000000,
   6315.000000,
   6320.000000,
   6325.000000,
   6330.000000,
   6335.000000,
   6340.000000,
   6345.000000,
   6350.000000,
   6355.000000,
   6360.000000,
   6365.000000,
   6370.000000,
   6375.000000,
   6380.000000,
   6385.000000,
   6390.000000,
   6395.000000,
   6400.000000,
   6405.000000,
   6410.000000,
   6415.000000,
   6420.000000,
   6425.000000,
   6430.000000,
   6435.000000,
   6440.000000,
   6445.000000,
   6450.000000,
   6455.000000,
   6460.000000,
   6465.000000,
   6470.000000,
   6475.000000,
   6480.000000,
   6485.000000,
   6490.000000,
   6495.000000,
   6500.000000,
   6505.000000,
   6510.000000,
   6515.000000,
   6520.000000,
   6525.000000,
   6530.000000,
   6535.000000,
   6540.000000,
   6545.000000,
   6550.000000,
   6555.000000,
   6560.000000,
   6565.000000,
   6570.000000,
   6575.000000,
   6580.000000,
   6585.000000,
   6590.000000,
   6595.000000,
   6600.000000,
   6605.000000,
   6610.000000,
   6615.000000,
   6620.000000,
   6625.000000,
   6630.000000,
   6635.000000,
   6640.000000,
   6645.000000,
   6650.000000,
   6655.000000,
   6660.000000,
   6665.000000,
   6670.000000,
   6675.000000,
   6680.000000,
   6685.000000,
   6690.000000,
   6695.000000,
   6700.000000,
   6705.000000,
   6710.000000,
   6715.000000,
   6720.000000,
   6725.000000,
   6730.000000,
   6735.000000,
   6740.000000,
   6745.000000,
   6750.000000,
   6755.000000,
   6760.000000,
   6765.000000,
   6770.000000,
   6775.000000,
   6780.000000,
   6785.000000,
   6790.000000,
   6795.000000,
   6800.000000,
   6805.000000,
   6810.000000,
   6815.000000,
   6820.000000,
   6825.000000,
   6830.000000,
   6835.000000,
   6840.000000,
   6845.000000,
   6850.000000,
   6855.000000,
   6860.000000,
   6865.000000,
   6870.000000,
   6875.000000,
   6880.000000,
   6885.000000,
   6890.000000,
   6895.000000,
   6900.000000,
   6905.000000,
   6910.000000,
   6915.000000,
   6920.000000,
   6925.000000,
   6930.000000,
   6935.000000,
   6940.000000,
   6945.000000,
   6950.000000,
   6955.000000,
   6960.000000,
   6965.000000,
   6970.000000,
   6975.000000,
   6980.000000,
   6985.000000,
   6990.000000,
   6995.000000,
   7000.000000,
   7005.000000,
   7010.000000,
   7015.000000,
   7020.000000,
   7025.000000,
   7030.000000,
   7035.000000,
   7040.000000,
   7045.000000,
   7050.000000,
   7055.000000,
   7060.000000,
   7065.000000,
   7070.000000,
   7075.000000,
   7080.000000,
   7085.000000,
   7090.000000,
   7095.000000,
   7100.000000,
   7105.000000,
   7110.000000,
   7115.000000,
   7120.000000,
   7125.000000,
   7130.000000,
   7135.000000,
   7140.000000,
   7145.000000,
   7150.000000,
   7155.000000,
   7160.000000,
   7165.000000,
   7170.000000,
   7175.000000,
   7180.000000,
   7185.000000,
   7190.000000,
   7195.000000,
   7200.000000,
   7205.000000,
   7210.000000,
   7215.000000,
   7220.000000,
   7225.000000,
   7230.000000,
   7235.000000,
   7240.000000,
   7245.000000,
   7250.000000,
   7255.000000,
   7260.000000,
   7265.000000,
   7270.000000,
   7275.000000,
   7280.000000,
   7285.000000,
   7290.000000,
   7295.000000,
   7300.000000,
   7305.000000,
   7310.000000,
   7315.000000,
   7320.000000,
   7325.000000,
   7330.000000,
   7335.000000,
   7340.000000,
   7345.000000,
   7350.000000,
   7355.000000,
   7360.000000,
   7365.000000,
   7370.000000,
   7375.000000,
   7380.000000,
   7385.000000,
   7390.000000,
   7395.000000,
   7400.000000,
   7405.000000,
   7410.000000,
   7415.000000,
   7420.000000,
   7425.000000,
   7430.000000,
   7435.000000,
   7440.000000,
   7445.000000,
   7450.000000,
   7455.000000,
   7460.000000,
   7465.000000,
   7470.000000,
   7475.000000,
   7480.000000,
   7485.000000,
   7490.000000,
   7495.000000,
   7500.000000,
   7505.000000,
   7510.000000,
   7515.000000,
   7520.000000,
   7525.000000,
   7530.000000,
   7535.000000,
   7540.000000,
   7545.000000,
   7550.000000,
   7555.000000,
   7560.000000,
   7565.000000,
   7570.000000,
   7575.000000,
   7580.000000,
   7585.000000,
   7590.000000,
   7595.000000,
   7600.000000,
   7605.000000,
   7610.000000,
   7615.000000,
   7620.000000,
   7625.000000,
   7630.000000,
   7635.000000,
   7640.000000,
   7645.000000,
   7650.000000,
   7655.000000,
   7660.000000,
   7665.000000,
   7670.000000,
   7675.000000,
   7680.000000,
   7685.000000,
   7690.000000,
   7695.000000,
   7700.000000,
   7705.000000,
   7710.000000,
   7715.000000,
   7720.000000,
   7725.000000,
   7730.000000,
   7735.000000,
   7740.000000,
   7745.000000,
   7750.000000,
   7755.000000,
   7760.000000,
   7765.000000,
   7770.000000,
   7775.000000,
   7780.000000,
   7785.000000,
   7790.000000,
   7795.000000,
   7800.000000,
   7805.000000,
   7810.000000,
   7815.000000,
   7820.000000,
   7825.000000,
   7830.000000,
   7835.000000,
   7840.000000,
   7845.000000,
   7850.000000,
   7855.000000,
   7860.000000,
   7865.000000,
   7870.000000,
   7875.000000,
   7880.000000,
   7885.000000,
   7890.000000,
   7895.000000,
   7900.000000,
   7905.000000,
   7910.000000,
   7915.000000,
   7920.000000,
   7925.000000,
   7930.000000,
   7935.000000,
   7940.000000,
   7945.000000,
   7950.000000,
   7955.000000,
   7960.000000,
   7965.000000,
   7970.000000,
   7975.000000,
   7980.000000,
   7985.000000,
   7990.000000,
   7995.000000,
   8000.000000,
   8005.000000,
   8010.000000,
   8015.000000,
   8020.000000,
   8025.000000,
   8030.000000,
   8035.000000,
   8040.000000,
   8045.000000,
   8050.000000,
   8055.000000,
   8060.000000,
   8065.000000,
   8070.000000,
   8075.000000,
   8080.000000,
   8085.000000,
   8090.000000,
   8095.000000,
   8100.000000,
   8105.000000,
   8110.000000,
   8115.000000,
   8120.000000,
   8125.000000,
   8130.000000,
   8135.000000,
   8140.000000,
   8145.000000,
   8150.000000,
   8155.000000,
   8160.000000,
   8165.000000,
   8170.000000,
   8175.000000,
   8180.000000,
   8185.000000,
   8190.000000,
   8195.000000,
   8200.000000,
   8205.000000,
   8210.000000,
   8215.000000,
   8220.000000,
   8225.000000,
   8230.000000,
   8235.000000,
   8240.000000,
   8245.000000,
   8250.000000,
   8255.000000,
   8260.000000,
   8265.000000,
   8270.000000,
   8275.000000,
   8280.000000,
   8285.000000,
   8290.000000,
   8295.000000,
   8300.000000,
   8305.000000,
   8310.000000,
   8315.000000,
   8320.000000,
   8325.000000,
   8330.000000,
   8335.000000,
   8340.000000,
   8345.000000,
   8350.000000,
   8355.000000,
   8360.000000,
   8365.000000,
   8370.000000,
   8375.000000,
   8380.000000,
   8385.000000,
   8390.000000,
   8395.000000,
   8400.000000,
   8405.000000,
   8410.000000,
   8415.000000,
   8420.000000,
   8425.000000,
   8430.000000,
   8435.000000,
   8440.000000,
   8445.000000,
   8450.000000,
   8455.000000,
   8460.000000,
   8465.000000,
   8470.000000,
   8475.000000,
   8480.000000,
   8485.000000,
   8490.000000,
   8495.000000,
   8500.000000,
   8505.000000,
   8510.000000,
   8515.000000,
   8520.000000,
   8525.000000,
   8530.000000,
   8535.000000,
   8540.000000,
   8545.000000,
   8550.000000,
   8555.000000,
   8560.000000,
   8565.000000,
   8570.000000,
   8575.000000,
   8580.000000,
   8585.000000,
   8590.000000,
   8595.000000,
   8600.000000,
   8605.000000,
   8610.000000,
   8615.000000,
   8620.000000,
   8625.000000,
   8630.000000,
   8635.000000,
   8640.000000,
   8645.000000,
   8650.000000,
   8655.000000,
   8660.000000,
   8665.000000,
   8670.000000,
   8675.000000,
   8680.000000,
   8685.000000,
   8690.000000,
   8695.000000,
   8700.000000,
   8705.000000,
   8710.000000,
   8715.000000,
   8720.000000,
   8725.000000,
   8730.000000,
   8735.000000,
   8740.000000,
   8745.000000,
   8750.000000,
   8755.000000,
   8760.000000,
   8765.000000,
   8770.000000,
   8775.000000,
   8780.000000,
   8785.000000,
   8790.000000,
   8795.000000,
   8800.000000,
   8805.000000,
   8810.000000,
   8815.000000,
   8820.000000,
   8825.000000,
   8830.000000,
   8835.000000,
   8840.000000,
   8845.000000,
   8850.000000,
   8855.000000,
   8860.000000,
   8865.000000,
   8870.000000,
   8875.000000,
   8880.000000,
   8885.000000,
   8890.000000,
   8895.000000,
   8900.000000,
   8905.000000,
   8910.000000,
   8915.000000,
   8920.000000,
   8925.000000,
   8930.000000,
   8935.000000,
   8940.000000,
   8945.000000,
   8950.000000,
   8955.000000,
   8960.000000,
   8965.000000,
   8970.000000,
   8975.000000,
   8980.000000,
   8985.000000,
   8990.000000,
   8995.000000,
   9000.000000,
   9005.000000,
   9010.000000,
   9015.000000,
   9020.000000,
   9025.000000,
   9030.000000,
   9035.000000,
   9040.000000,
   9045.000000,
   9050.000000,
   9055.000000,
   9060.000000,
   9065.000000,
   9070.000000,
   9075.000000,
   9080.000000,
   9085.000000,
   9090.000000,
   9095.000000,
   9100.000000,
   9105.000000,
   9110.000000,
   9115.000000,
   9120.000000,
   9125.000000,
   9130.000000,
   9135.000000,
   9140.000000,
   9145.000000,
   9150.000000,
   9155.000000,
   9160.000000,
   9165.000000,
   9170.000000,
   9175.000000,
   9180.000000,
   9185.000000,
   9190.000000,
   9195.000000,
   9200.000000,
   9205.000000,
   9210.000000,
   9215.000000,
   9220.000000,
   9225.000000,
   9230.000000,
   9235.000000,
   9240.000000,
   9245.000000,
   9250.000000,
   9255.000000,
   9260.000000,
   9265.000000,
   9270.000000,
   9275.000000,
   9280.000000,
   9285.000000,
   9290.000000,
   9295.000000,
   9300.000000,
   9305.000000,
   9310.000000,
   9315.000000,
   9320.000000,
   9325.000000,
   9330.000000,
   9335.000000,
   9340.000000,
   9345.000000,
   9350.000000,
   9355.000000,
   9360.000000,
   9365.000000,
   9370.000000,
   9375.000000,
   9380.000000,
   9385.000000,
   9390.000000,
   9395.000000,
   9400.000000,
   9405.000000,
   9410.000000,
   9415.000000,
   9420.000000,
   9425.000000,
   9430.000000,
   9435.000000,
   9440.000000,
   9445.000000,
   9450.000000,
   9455.000000,
   9460.000000,
   9465.000000,
   9470.000000,
   9475.000000,
   9480.000000,
   9485.000000,
   9490.000000,
   9495.000000,
   9500.000000,
   9505.000000,
   9510.000000,
   9515.000000,
   9520.000000,
   9525.000000,
   9530.000000,
   9535.000000,
   9540.000000,
   9545.000000,
   9550.000000,
   9555.000000,
   9560.000000,
   9565.000000,
   9570.000000,
   9575.000000,
   9580.000000,
   9585.000000,
   9590.000000,
   9595.000000,
   9600.000000,
   9605.000000,
   9610.000000,
   9615.000000,
   9620.000000,
   9625.000000,
   9630.000000,
   9635.000000,
   9640.000000,
   9645.000000,
   9650.000000,
   9655.000000,
   9660.000000,
   9665.000000,
   9670.000000,
   9675.000000,
   9680.000000,
   9685.000000,
   9690.000000,
   9695.000000,
   9700.000000,
   9705.000000,
   9710.000000,
   9715.000000,
   9720.000000,
   9725.000000,
   9730.000000,
   9735.000000,
   9740.000000,
   9745.000000,
   9750.000000,
   9755.000000,
   9760.000000,
   9765.000000,
   9770.000000,
   9775.000000,
   9780.000000,
   9785.000000,
   9790.000000,
   9795.000000,
   9800.000000,
   9805.000000,
   9810.000000,
   9815.000000,
   9820.000000,
   9825.000000,
   9830.000000,
   9835.000000,
   9840.000000,
   9845.000000,
   9850.000000,
   9855.000000,
   9860.000000,
   9865.000000,
   9870.000000,
   9875.000000,
   9880.000000,
   9885.000000,
   9890.000000,
   9895.000000,
   9900.000000,
   9905.000000,
   9910.000000,
   9915.000000,
   9920.000000,
   9925.000000,
   9930.000000,
   9935.000000,
   9940.000000,
   9945.000000,
   9950.000000,
   9955.000000,
   9960.000000,
   9965.000000,
   9970.000000,
   9975.000000,
   9980.000000,
   9985.000000,
   9990.000000,
   9995.000000,
   10000.000000,
   10005.000000,
   10010.000000,
   10015.000000,
   10020.000000,
   10025.000000,
   10030.000000,
   10035.000000,
   10040.000000,
   10045.000000,
   10050.000000,
   10055.000000,
   10060.000000,
   10065.000000,
   10070.000000,
   10075.000000,
   10080.000000,
   10085.000000,
   10090.000000,
   10095.000000,
   10100.000000,
   10105.000000,
   10110.000000,
   10115.000000,
   10120.000000,
   10125.000000,
   10130.000000,
   10135.000000,
   10140.000000,
   10145.000000,
   10150.000000,
   10155.000000,
   10160.000000,
   10165.000000,
   10170.000000,
   10175.000000,
   10180.000000,
   10185.000000,
   10190.000000,
   10195.000000,
   10200.000000,
   10205.000000,
   10210.000000,
   10215.000000,
   10220.000000,
   10225.000000,
   10230.000000,
   10235.000000,
   10240.000000,
   10245.000000,
   10250.000000,
   10255.000000,
   10260.000000,
   10265.000000,
   10270.000000,
   10275.000000,
   10280.000000,
   10285.000000,
   10290.000000,
   10295.000000,
   10300.000000,
   10305.000000,
   10310.000000,
   10315.000000,
   10320.000000,
   10325.000000,
   10330.000000,
   10335.000000,
   10340.000000,
   10345.000000,
   10350.000000,
   10355.000000,
   10360.000000,
   10365.000000,
   10370.000000,
   10375.000000,
   10380.000000,
   10385.000000,
   10390.000000,
   10395.000000,
   10400.000000,
   10405.000000,
   10410.000000,
   10415.000000,
   10420.000000,
   10425.000000,
   10430.000000,
   10435.000000,
   10440.000000,
   10445.000000,
   10450.000000,
   10455.000000,
   10460.000000,
   10465.000000,
   10470.000000,
   10475.000000,
   10480.000000,
   10485.000000,
   10490.000000,
   10495.000000,
   10500.000000,
   10505.000000,
   10510.000000,
   10515.000000,
   10520.000000,
   10525.000000,
   10530.000000,
   10535.000000,
   10540.000000,
   10545.000000,
   10550.000000,
   10555.000000,
   10560.000000,
   10565.000000,
   10570.000000,
   10575.000000,
   10580.000000,
   10585.000000,
   10590.000000,
   10595.000000,
   10600.000000,
   10605.000000,
   10610.000000,
   10615.000000,
   10620.000000
};

static double _a0iv_flux[] = {
   0.000000,
   0.120079,
   0.158286,
   0.008022,
   0.019749,
   0.000000,
   0.000000,
   0.000000,
   0.000000,
   0.000000,
   0.000000,
   0.019869,
   0.074874,
   0.105972,
   0.070631,
   0.030213,
   0.026450,
   0.028923,
   0.036029,
   0.021266,
   0.023236,
   0.036060,
   0.040277,
   0.055121,
   0.118460,
   0.134902,
   0.196980,
   0.253641,
   0.237992,
   0.279190,
   0.287661,
   0.217196,
   0.238408,
   0.394596,
   0.462820,
   0.474916,
   0.461814,
   0.516495,
   0.623807,
   0.648167,
   0.586798,
   0.529272,
   0.528497,
   0.492176,
   0.487208,
   0.533086,
   0.550449,
   0.557393,
   0.572256,
   0.575962,
   0.563434,
   0.608759,
   0.610615,
   0.633705,
   0.704657,
   0.731017,
   0.702233,
   0.674490,
   0.727477,
   0.764514,
   0.826455,
   0.858866,
   0.847113,
   0.803689,
   0.755935,
   0.744737,
   0.786626,
   0.810351,
   0.908981,
   0.984892,
   1.039600,
   0.931065,
   0.787548,
   0.797806,
   0.892262,
   0.827519,
   0.769415,
   0.824078,
   0.968194,
   1.033468,
   1.065909,
   1.027128,
   0.995444,
   1.078577,
   1.052518,
   1.098764,
   1.255742,
   1.280895,
   1.239150,
   1.212548,
   1.265623,
   1.268728,
   1.202034,
   1.191153,
   1.235031,
   1.247191,
   1.184685,
   1.187729,
   1.173788,
   1.202026,
   1.205495,
   1.090294,
   1.117725,
   1.191450,
   1.004762,
   1.045278,
   1.208665,
   1.229684,
   1.254529,
   1.272119,
   1.248442,
   1.240123,
   1.268263,
   1.285425,
   1.248050,
   1.185657,
   1.253721,
   1.270947,
   1.309771,
   1.349534,
   1.377631,
   1.454707,
   1.383988,
   1.293993,
   1.334815,
   1.387436,
   1.422650,
   1.314376,
   1.179603,
   1.461091,
   1.569635,
   1.526307,
   1.503177,
   1.552404,
   1.593342,
   1.609037,
   1.505837,
   1.432223,
   1.377671,
   1.324872,
   1.365421,
   1.384154,
   1.385268,
   1.383330,
   1.435925,
   1.445720,
   1.454807,
   1.501085,
   1.464742,
   1.420302,
   1.374610,
   1.350988,
   1.351786,
   1.389060,
   1.404470,
   1.396089,
   1.379547,
   1.377543,
   1.429160,
   1.485684,
   1.481626,
   1.479957,
   1.501745,
   1.521698,
   1.476303,
   1.527820,
   1.520725,
   1.544602,
   1.506742,
   1.427491,
   1.447265,
   1.423326,
   1.349487,
   1.376738,
   1.350120,
   1.338057,
   1.332071,
   1.318294,
   1.354124,
   1.404725,
   1.474132,
   1.490515,
   1.369268,
   1.328321,
   1.375024,
   1.457466,
   1.503293,
   1.477989,
   1.526711,
   1.422673,
   1.331528,
   1.320220,
   1.368424,
   1.364390,
   1.358395,
   1.341773,
   1.309024,
   1.144515,
   1.082033,
   1.238259,
   1.330710,
   1.342876,
   1.308277,
   1.133291,
   1.066276,
   1.057932,
   1.069179,
   1.134678,
   1.178579,
   1.195068,
   1.245660,
   1.240837,
   1.116726,
   1.042626,
   1.059391,
   1.056030,
   0.996255,
   1.059476,
   1.132234,
   1.051214,
   1.002901,
   1.051025,
   1.037112,
   1.023334,
   1.030007,
   1.081358,
   1.088389,
   1.064619,
   1.117121,
   1.125903,
   1.050751,
   0.991207,
   1.039261,
   0.997285,
   0.969815,
   0.983901,
   0.978355,
   0.972707,
   0.952062,
   0.896633,
   0.886260,
   0.940362,
   0.959891,
   0.936276,
   0.948900,
   0.958430,
   0.948539,
   0.874178,
   0.806383,
   0.843119,
   0.862784,
   0.836403,
   0.781417,
   0.812118,
   0.869663,
   0.961356,
   1.006271,
   0.981149,
   0.975793,
   0.981881,
   0.956576,
   0.983072,
   1.035259,
   1.012280,
   0.944096,
   0.918281,
   0.976719,
   0.963427,
   0.915698,
   0.886036,
   1.017576,
   1.066233,
   1.007215,
   0.998354,
   0.958598,
   0.886965,
   0.879609,
   0.901917,
   0.901343,
   0.885208,
   0.877604,
   0.907962,
   0.954581,
   0.982032,
   1.009679,
   1.025315,
   0.932399,
   0.899896,
   0.995481,
   1.004853,
   0.982923,
   0.955564,
   0.925886,
   0.930549,
   0.962676,
   1.014014,
   1.000848,
   1.022412,
   1.114354,
   1.181489,
   1.211401,
   1.234168,
   1.178305,
   1.101514,
   1.061222,
   1.053711,
   1.101508,
   1.101077,
   1.067208,
   0.997313,
   0.994653,
   1.034148,
   1.017264,
   1.021681,
   1.021645,
   0.998862,
   1.032115,
   1.097109,
   1.071030,
   0.951778,
   0.876005,
   0.863512,
   0.885437,
   0.937423,
   0.969576,
   1.017588,
   1.018972,
   1.003360,
   1.025725,
   0.951230,
   0.785552,
   0.800936,
   0.927698,
   1.070817,
   1.123221,
   1.128038,
   1.072312,
   1.057541,
   1.063889,
   1.038427,
   1.024095,
   1.019838,
   1.041106,
   1.040905,
   1.033267,
   1.020457,
   1.029455,
   1.049467,
   1.025157,
   1.010623,
   1.057703,
   1.114545,
   1.134160,
   1.174536,
   1.179186,
   1.112112,
   1.079963,
   1.084482,
   1.099760,
   1.133241,
   1.129422,
   1.139036,
   1.135952,
   1.101923,
   1.107169,
   1.127645,
   1.139092,
   1.109940,
   1.142609,
   1.164673,
   1.158007,
   1.142429,
   1.161880,
   1.181040,
   1.150155,
   1.144091,
   1.132153,
   1.114454,
   1.147785,
   1.130165,
   1.122651,
   1.116730,
   1.091645,
   1.100305,
   1.110009,
   1.107325,
   1.138533,
   1.137268,
   1.139010,
   1.140533,
   1.115542,
   1.114280,
   1.105588,
   1.108392,
   1.078092,
   1.111189,
   1.140441,
   1.133573,
   1.132021,
   1.165666,
   1.131603,
   1.100201,
   1.088295,
   1.093394,
   1.112206,
   1.119256,
   1.084475,
   1.066941,
   1.104751,
   1.096236,
   1.113845,
   1.101764,
   1.090801,
   1.084462,
   1.079803,
   1.074146,
   1.072328,
   1.077836,
   1.081252,
   1.074865,
   1.070707,
   1.079607,
   1.087857,
   1.081048,
   1.066507,
   1.054841,
   1.048045,
   1.046632,
   1.053807,
   1.069719,
   1.079603,
   1.070487,
   1.051469,
   1.035537,
   1.029155,
   1.033171,
   1.032488,
   1.015228,
   0.998328,
   1.000046,
   1.015120,
   1.031538,
   1.033813,
   1.013051,
   0.990202,
   0.986743,
   0.996434,
   1.007808,
   1.016234,
   1.019194,
   1.015804,
   1.007698,
   1.004944,
   1.014723,
   1.024223,
   1.019957,
   1.005738,
   0.989525,
   0.978574,
   0.977646,
   0.982221,
   0.985938,
   0.984346,
   0.975439,
   0.965106,
   0.959313,
   0.956441,
   0.953474,
   0.949373,
   0.944539,
   0.943157,
   0.948069,
   0.952982,
   0.952320,
   0.952502,
   0.959789,
   0.967791,
   0.969357,
   0.966953,
   0.964658,
   0.963399,
   0.962819,
   0.960563,
   0.954471,
   0.945154,
   0.934812,
   0.929239,
   0.932566,
   0.938683,
   0.940655,
   0.938484,
   0.934113,
   0.930310,
   0.928911,
   0.927225,
   0.922684,
   0.917748,
   0.915493,
   0.916417,
   0.919776,
   0.922437,
   0.921992,
   0.921329,
   0.922498,
   0.918899,
   0.906079,
   0.896830,
   0.902341,
   0.910155,
   0.907835,
   0.906677,
   0.919420,
   0.940843,
   0.962753,
   0.983015,
   1.002005,
   1.024069,
   1.053001,
   1.086424,
   1.122118,
   1.164656,
   1.213422,
   1.240249,
   1.232052,
   1.263643,
   1.394970,
   1.538642,
   1.592344,
   1.541412,
   1.421846,
   1.384664,
   1.549568,
   1.795971,
   1.960237,
   1.946815,
   1.725234,
   1.457272,
   1.324259,
   1.393489,
   1.665473,
   1.987612,
   2.206650,
   2.319814,
   2.349500,
   2.268286,
   2.055043,
   1.763628,
   1.479056,
   1.335987,
   1.435656,
   1.695947,
   1.998002,
   2.259350,
   2.420312,
   2.475998,
   2.445325,
   2.387667,
   2.359994,
   2.369215,
   2.393028,
   2.342366,
   2.141057,
   1.831277,
   1.505952,
   1.342659,
   1.476296,
   1.786364,
   2.108442,
   2.357808,
   2.491038,
   2.550197,
   2.586971,
   2.606046,
   2.603878,
   2.591005,
   2.579373,
   2.572494,
   2.570558,
   2.568921,
   2.563060,
   2.553757,
   2.540829,
   2.514920,
   2.469089,
   2.415224,
   2.358086,
   2.255098,
   2.065445,
   1.802709,
   1.514139,
   1.327241,
   1.351217,
   1.541765,
   1.813076,
   2.066801,
   2.225462,
   2.307605,
   2.351267,
   2.376438,
   2.394636,
   2.401559,
   2.392414,
   2.376279,
   2.362502,
   2.347667,
   2.329226,
   2.320874,
   2.333308,
   2.348959,
   2.350245,
   2.347762,
   2.353378,
   2.355865,
   2.343055,
   2.322097,
   2.303503,
   2.291922,
   2.288522,
   2.286420,
   2.279695,
   2.274306,
   2.275542,
   2.274121,
   2.261265,
   2.244789,
   2.233384,
   2.222646,
   2.205801,
   2.179684,
   2.143231,
   2.100170,
   2.055257,
   2.012583,
   1.962996,
   1.845054,
   1.615570,
   1.356670,
   1.168368,
   1.096896,
   1.164333,
   1.349919,
   1.608778,
   1.842415,
   1.967190,
   2.012504,
   2.027338,
   2.025946,
   2.015026,
   2.005779,
   2.006797,
   2.011736,
   2.012836,
   2.011596,
   2.011370,
   2.013664,
   2.017861,
   2.016694,
   2.004372,
   1.987649,
   1.974472,
   1.965022,
   1.956638,
   1.943050,
   1.919409,
   1.890144,
   1.862677,
   1.847122,
   1.850163,
   1.862075,
   1.871662,
   1.878238,
   1.882756,
   1.882220,
   1.874245,
   1.862858,
   1.852662,
   1.844142,
   1.836369,
   1.826848,
   1.814163,
   1.802774,
   1.797469,
   1.798456,
   1.804010,
   1.809235,
   1.809520,
   1.804562,
   1.796225,
   1.790722,
   1.792756,
   1.796629,
   1.795855,
   1.791200,
   1.784634,
   1.775709,
   1.764603,
   1.756441,
   1.755413,
   1.757052,
   1.755268,
   1.746143,
   1.728968,
   1.713703,
   1.709745,
   1.713600,
   1.719181,
   1.722941,
   1.722768,
   1.719746,
   1.715086,
   1.707302,
   1.695948,
   1.687421,
   1.686716,
   1.686362,
   1.679016,
   1.670307,
   1.666722,
   1.665218,
   1.661460,
   1.655478,
   1.648221,
   1.639951,
   1.630981,
   1.622509,
   1.615704,
   1.610743,
   1.606904,
   1.600865,
   1.590287,
   1.579373,
   1.571797,
   1.562606,
   1.546098,
   1.522225,
   1.492707,
   1.460676,
   1.423487,
   1.353966,
   1.230778,
   1.080483,
   0.943759,
   0.869856,
   0.895586,
   0.999454,
   1.142479,
   1.274035,
   1.354246,
   1.397871,
   1.428267,
   1.448540,
   1.457313,
   1.455527,
   1.446013,
   1.436831,
   1.435120,
   1.439097,
   1.444661,
   1.447352,
   1.443874,
   1.435943,
   1.426762,
   1.420483,
   1.419317,
   1.416779,
   1.407137,
   1.396377,
   1.391011,
   1.387931,
   1.382818,
   1.376145,
   1.369194,
   1.361698,
   1.353700,
   1.348050,
   1.346743,
   1.345576,
   1.340215,
   1.332019,
   1.323385,
   1.315165,
   1.308133,
   1.304276,
   1.304514,
   1.304280,
   1.299285,
   1.291845,
   1.285124,
   1.279057,
   1.273130,
   1.268241,
   1.265174,
   1.262835,
   1.259949,
   1.256407,
   1.252501,
   1.248989,
   1.246642,
   1.245820,
   1.246318,
   1.246054,
   1.242925,
   1.236609,
   1.227665,
   1.218385,
   1.211072,
   1.206334,
   1.204132,
   1.203538,
   1.203614,
   1.204268,
   1.205122,
   1.203802,
   1.198206,
   1.189315,
   1.179292,
   1.171923,
   1.170169,
   1.172053,
   1.174230,
   1.172819,
   1.165417,
   1.156048,
   1.149134,
   1.144246,
   1.140523,
   1.140226,
   1.144613,
   1.147784,
   1.144185,
   1.136785,
   1.129640,
   1.122646,
   1.115209,
   1.108947,
   1.105474,
   1.104194,
   1.104045,
   1.104317,
   1.104409,
   1.103801,
   1.101961,
   1.098220,
   1.092633,
   1.088278,
   1.087826,
   1.089279,
   1.089650,
   1.086653,
   1.079278,
   1.070898,
   1.065438,
   1.064627,
   1.068498,
   1.072488,
   1.072293,
   1.069232,
   1.065580,
   1.061807,
   1.057787,
   1.052812,
   1.046533,
   1.040634,
   1.036860,
   1.035177,
   1.034839,
   1.034032,
   1.031527,
   1.029515,
   1.029647,
   1.027995,
   1.021208,
   1.013793,
   1.010707,
   1.010825,
   1.011615,
   1.011000,
   1.007912,
   1.004857,
   1.004273,
   1.004756,
   1.004406,
   1.003199,
   1.001346,
   0.998124,
   0.993147,
   0.988290,
   0.985421,
   0.984129,
   0.983267,
   0.981028,
   0.976444,
   0.972567,
   0.972177,
   0.972962,
   0.972145,
   0.970175,
   0.968014,
   0.965441,
   0.962121,
   0.958444,
   0.954859,
   0.951331,
   0.947959,
   0.945874,
   0.945648,
   0.944578,
   0.940384,
   0.935751,
   0.933456,
   0.931704,
   0.928343,
   0.924375,
   0.921199,
   0.918645,
   0.916182,
   0.913414,
   0.910213,
   0.907382,
   0.905714,
   0.905048,
   0.904985,
   0.905123,
   0.905102,
   0.904721,
   0.903819,
   0.902236,
   0.899882,
   0.896962,
   0.893754,
   0.890535,
   0.887524,
   0.884710,
   0.882026,
   0.879403,
   0.876769,
   0.874040,
   0.871128,
   0.867945,
   0.864440,
   0.860714,
   0.856905,
   0.853150,
   0.849569,
   0.846204,
   0.843080,
   0.840222,
   0.837650,
   0.835377,
   0.833409,
   0.831756,
   0.830380,
   0.829063,
   0.827541,
   0.825551,
   0.822910,
   0.819769,
   0.816357,
   0.812907,
   0.809621,
   0.806600,
   0.803915,
   0.801640,
   0.799800,
   0.798229,
   0.796718,
   0.795053,
   0.793093,
   0.790966,
   0.788869,
   0.787001,
   0.788895,
   0.785617,
   0.783862,
   0.781337,
   0.785546,
   0.792525,
   0.778196,
   0.775437,
   0.777622,
   0.774474,
   0.770061,
   0.769413,
   0.769489,
   0.769988,
   0.767987,
   0.765055,
   0.764610,
   0.764308,
   0.763191,
   0.759460,
   0.758651,
   0.758458,
   0.756052,
   0.752453,
   0.749790,
   0.748426,
   0.746448,
   0.742098,
   0.738650,
   0.734930,
   0.729669,
   0.728314,
   0.731987,
   0.730532,
   0.728846,
   0.732043,
   0.729598,
   0.726199,
   0.725514,
   0.722405,
   0.723002,
   0.719786,
   0.718955,
   0.719684,
   0.717120,
   0.714165,
   0.712398,
   0.710246,
   0.709456,
   0.707938,
   0.708093,
   0.711128,
   0.705903,
   0.700863,
   0.691983,
   0.681082,
   0.688815,
   0.690231,
   0.687017,
   0.685235,
   0.686232,
   0.687398,
   0.684670,
   0.684622,
   0.683299,
   0.680862,
   0.679189,
   0.676426,
   0.668535,
   0.667274,
   0.671616,
   0.671176,
   0.667042,
   0.663445,
   0.664401,
   0.665640,
   0.663568,
   0.662123,
   0.659225,
   0.661634,
   0.660884,
   0.660555,
   0.657280,
   0.656165,
   0.660392,
   0.654984,
   0.654593,
   0.651441,
   0.647142,
   0.643384,
   0.632410,
   0.634296,
   0.633914,
   0.625293,
   0.619247,
   0.613187,
   0.608110,
   0.605898,
   0.602103,
   0.609417,
   0.613824,
   0.614905,
   0.603114,
   0.608730,
   0.598322,
   0.591729,
   0.580814,
   0.567351,
   0.542016,
   0.508448,
   0.455683,
   0.379809,
   0.363346,
   0.454158,
   0.509951,
   0.543442,
   0.566952,
   0.580976,
   0.591249,
   0.595328,
   0.603913,
   0.608964,
   0.608401,
   0.603512,
   0.597636,
   0.590072,
   0.585824,
   0.587097,
   0.584220,
   0.586204,
   0.581338,
   0.580635,
   0.577979,
   0.580696,
   0.577982,
   0.577229,
   0.572056,
   0.572966,
   0.572368,
   0.570759,
   0.568510,
   0.567019,
   0.565577,
   0.564123,
   0.563439,
   0.562916,
   0.560459,
   0.559142,
   0.560196,
   0.560693,
   0.557702,
   0.555481,
   0.556916,
   0.552820,
   0.553910,
   0.553959,
   0.549190,
   0.550694,
   0.550729,
   0.548919,
   0.546356,
   0.545653,
   0.548234,
   0.544973,
   0.542093,
   0.542091,
   0.541916,
   0.540633,
   0.539468,
   0.538184,
   0.537012,
   0.535866,
   0.534692,
   0.533473,
   0.532278,
   0.531223,
   0.530074,
   0.528868,
   0.527720,
   0.526604,
   0.525486,
   0.524373,
   0.523239,
   0.522182,
   0.521205,
   0.520283,
   0.519360,
   0.518549,
   0.517755,
   0.516798,
   0.515838,
   0.514810,
   0.513829,
   0.512677,
   0.512261,
   0.508777,
   0.505926,
   0.503363,
   0.502585,
   0.498057,
   0.496951,
   0.499806,
   0.497518,
   0.498664,
   0.495778,
   0.495475,
   0.496945,
   0.495922,
   0.495016,
   0.493927,
   0.490670,
   0.491372,
   0.493516,
   0.492651,
   0.489781,
   0.488937,
   0.486943,
   0.486479,
   0.483683,
   0.482291,
   0.483248,
   0.481730,
   0.480665,
   0.478413,
   0.483549,
   0.483614,
   0.483167,
   0.485957,
   0.481853,
   0.482045,
   0.481331,
   0.481519,
   0.474326,
   0.465763,
   0.458326,
   0.457327,
   0.445046,
   0.444303,
   0.451303,
   0.451218,
   0.451928,
   0.466057,
   0.472679,
   0.471188,
   0.470429,
   0.465496,
   0.449744,
   0.451949,
   0.451643,
   0.453705,
   0.449379,
   0.456203,
   0.449283,
   0.450116,
   0.440519,
   0.445168,
   0.451336,
   0.441372,
   0.446045,
   0.446857,
   0.438159,
   0.441622,
   0.442066,
   0.439890,
   0.443647,
   0.441029,
   0.440827,
   0.442476,
   0.438660,
   0.436376,
   0.435722,
   0.433848,
   0.433562,
   0.431785,
   0.431548,
   0.432055,
   0.429797,
   0.429058,
   0.426029,
   0.426395,
   0.426965,
   0.423757,
   0.421872,
   0.421269,
   0.420821,
   0.422047,
   0.419454,
   0.417617,
   0.415017,
   0.417241,
   0.417212,
   0.413535,
   0.410552,
   0.411520,
   0.413219,
   0.410783,
   0.410507,
   0.408534,
   0.407358,
   0.407481,
   0.407748,
   0.404565,
   0.401534,
   0.403082,
   0.402815,
   0.402183,
   0.399130,
   0.402395,
   0.399897,
   0.398690,
   0.397925,
   0.397117,
   0.396358,
   0.395628,
   0.394805,
   0.393909,
   0.393105,
   0.392327,
   0.391557,
   0.390718,
   0.390032,
   0.389281,
   0.388520,
   0.387759,
   0.386996,
   0.386229,
   0.385456,
   0.384673,
   0.383880,
   0.383075,
   0.382258,
   0.381430,
   0.380593,
   0.379744,
   0.378877,
   0.377988,
   0.377051,
   0.376108,
   0.375167,
   0.374253,
   0.373492,
   0.373191,
   0.373177,
   0.372556,
   0.371616,
   0.370906,
   0.370289,
   0.369930,
   0.370150,
   0.369394,
   0.368495,
   0.366919,
   0.361999,
   0.348785,
   0.343291,
   0.358369,
   0.363273,
   0.361867,
   0.361170,
   0.360871,
   0.360373,
   0.359104,
   0.358301,
   0.358714,
   0.358171,
   0.355769,
   0.354310,
   0.354110,
   0.352438,
   0.353700,
   0.351461,
   0.351408,
   0.351071,
   0.349134,
   0.346165,
   0.345196,
   0.347185,
   0.347051,
   0.339173,
   0.342054,
   0.344136,
   0.343517,
   0.344610,
   0.341568,
   0.341864,
   0.338923,
   0.341563,
   0.340808,
   0.336661,
   0.336950,
   0.337982,
   0.336479,
   0.334767,
   0.336068,
   0.335916,
   0.335530,
   0.335049,
   0.336300,
   0.333396,
   0.330980,
   0.331957,
   0.329900,
   0.328707,
   0.329710,
   0.328226,
   0.328222,
   0.327145,
   0.327312,
   0.328228,
   0.327151,
   0.327183,
   0.324428,
   0.324216,
   0.324732,
   0.324572,
   0.324211,
   0.325153,
   0.323975,
   0.322911,
   0.322774,
   0.324021,
   0.322901,
   0.323028,
   0.321494,
   0.322781,
   0.318986,
   0.313980,
   0.316020,
   0.313969,
   0.308668,
   0.305660,
   0.303400,
   0.297592,
   0.307464,
   0.307860,
   0.302048,
   0.307871,
   0.307710,
   0.307021,
   0.305048,
   0.315652,
   0.315279,
   0.310339,
   0.308312,
   0.291786,
   0.281172,
   0.296668,
   0.307683,
   0.306231,
   0.307470,
   0.304337,
   0.304979,
   0.307741,
   0.303761,
   0.297430,
   0.296662,
   0.297859,
   0.296055,
   0.295798,
   0.296761,
   0.294889,
   0.297291,
   0.295464,
   0.290608,
   0.292763,
   0.294330,
   0.291040,
   0.292040,
   0.293281,
   0.294551,
   0.293108,
   0.291902,
   0.291024,
   0.291373,
   0.290383,
   0.291059,
   0.289396,
   0.287988,
   0.288494,
   0.288869,
   0.288486,
   0.284168,
   0.284147,
   0.287236,
   0.285115,
   0.283795,
   0.277429,
   0.276965,
   0.274849,
   0.280155,
   0.285667,
   0.280010,
   0.274022,
   0.275588,
   0.282119,
   0.286533,
   0.287984,
   0.283577,
   0.271010,
   0.260204,
   0.266236,
   0.277803,
   0.283313,
   0.286090,
   0.284772,
   0.280603,
   0.270617,
   0.253266,
   0.248198,
   0.261061,
   0.276566,
   0.285666,
   0.289016,
   0.290422,
   0.288684,
   0.280950,
   0.273481,
   0.260850,
   0.243286,
   0.242737,
   0.261925,
   0.278045,
   0.287802,
   0.294584,
   0.299419,
   0.300524,
   0.302155,
   0.296833,
   0.288500,
   0.277248,
   0.258706,
   0.235052,
   0.220318,
   0.237809,
   0.258543,
   0.268900,
   0.282011,
   0.292932,
   0.303497,
   0.308330,
   0.308753,
   0.308908,
   0.306547,
   0.302474,
   0.292745,
   0.283078,
   0.268266,
   0.249608,
   0.228683,
   0.214613,
   0.226059,
   0.244441,
   0.257498,
   0.267403,
   0.275712,
   0.279444,
   0.281716,
   0.284138,
   0.287080,
   0.286434,
   0.284834,
   0.283497,
   0.281872,
   0.282271,
   0.272598,
   0.266993,
   0.262125,
   0.254394,
   0.242091,
   0.227801,
   0.210435,
   0.192639,
   0.194202,
   0.214982,
   0.229321,
   0.243159,
   0.253236,
   0.261326,
   0.267272,
   0.269942,
   0.275449,
   0.275988,
   0.275538,
   0.276001,
   0.271268,
   0.271148,
   0.272049,
   0.273853,
   0.270558,
   0.270920,
   0.268027,
   0.269326,
   0.262063,
   0.260734,
   0.261255,
   0.257380,
   0.244909,
   0.224264,
   0.230543,
   0.217802,
   0.204420,
   0.188357,
   0.172532,
   0.192029,
   0.211308,
   0.227149,
   0.246703,
   0.257008,
   0.261310,
   0.266030,
   0.266291,
   0.259181,
   0.258302,
   0.255331,
   0.253646,
   0.251368,
   0.248544,
   0.247873,
   0.249841,
   0.253668,
   0.256582,
   0.257701,
   0.262018,
   0.259220,
   0.264759,
   0.253356,
   0.250304,
   0.256169,
   0.262582,
   0.253536,
   0.241971,
   0.250668,
   0.258119,
   0.254949,
   0.245468,
   0.251203,
   0.250989,
   0.250910,
   0.244671,
   0.240020,
   0.233684,
   0.225065,
   0.207962,
   0.194526,
   0.177994,
   0.171852,
   0.184549,
   0.204275,
   0.214496,
   0.224700,
   0.235157,
   0.235543,
   0.244086,
   0.253274,
   0.255721,
   0.253628,
   0.258604,
   0.253019,
   0.249350,
   0.241698,
   0.243357,
   0.238587,
   0.231642,
   0.229093,
   0.231084,
   0.236067,
   0.229832,
   0.225441,
   0.219548,
   0.237114,
   0.223141,
   0.225670,
   0.229297,
   0.223480,
   0.230562,
   0.228184,
   0.239299,
   0.251122,
   0.262312,
   0.254689,
   0.251395,
   0.240965,
   0.238963,
   0.234474,
   0.223599,
   0.210035,
   0.219646,
   0.206004,
   0.215966,
   0.225398,
   0.222399,
   0.220890,
   0.228105,
   0.231501,
   0.228803,
   0.221942,
   0.222643,
   0.230001,
   0.215542,
   0.204078,
   0.215161,
   0.222245,
   0.208616,
   0.194942,
   0.192900,
   0.179480,
   0.175695,
   0.172517,
   0.162081,
   0.168329,
   0.172642,
   0.182936,
   0.189805,
   0.197459,
   0.211294,
   0.210738,
   0.210414,
   0.207650,
   0.208345,
   0.213876,
   0.211642,
   0.212377,
   0.213423,
   0.207318,
   0.206525,
   0.212751,
   0.211203,
   0.208349,
   0.210863,
   0.212544,
   0.214934,
   0.210888,
   0.212302,
   0.213176,
   0.217813,
   0.218591,
   0.215002,
   0.212708,
   0.214158,
   0.211627,
   0.211770,
   0.211632,
   0.207990,
   0.210630,
   0.209615,
   0.211492,
   0.207449,
   0.209147,
   0.207502,
   0.208363,
   0.204316,
   0.204627,
   0.206994,
   0.209787,
   0.206602,
   0.205906,
   0.205375,
   0.204288,
   0.204110,
   0.202483,
   0.201784,
   0.204571,
   0.205823,
   0.205972,
   0.203735,
   0.201036,
   0.207141,
   0.202658,
   0.202957,
   0.199800,
   0.197018,
   0.195784,
   0.197505,
   0.198190,
   0.196668,
   0.198758,
   0.196298,
   0.194284,
   0.195546,
   0.193061,
   0.192483,
   0.194938,
   0.194997,
   0.192450,
   0.195283,
   0.195728,
   0.193261,
   0.196482,
   0.194099,
   0.194604,
   0.192628,
   0.195161,
   0.192146,
   0.190258,
   0.187086,
   0.189376,
   0.185548,
   0.180199,
   0.180809,
   0.184397,
   0.178258,
   0.175284,
   0.171073,
   0.166469,
   0.161500,
   0.157971,
   0.149361,
   0.146727,
   0.141065,
   0.142123,
   0.140072,
   0.145319,
   0.157135,
   0.162414,
   0.157435,
   0.162149,
   0.168575,
   0.172689,
   0.173435,
   0.176417,
   0.172818,
   0.175075,
   0.181891,
   0.172373,
   0.174986,
   0.177914,
   0.177340,
   0.182492,
   0.180800,
   0.178277,
   0.179887,
   0.177293,
   0.180493,
   0.180517,
   0.180221,
   0.176003,
   0.171228,
   0.166068,
   0.160738,
   0.174632,
   0.172726,
   0.171393,
   0.170689,
   0.170669,
   0.171327,
   0.172405,
   0.173585,
   0.174548,
   0.175035,
   0.175031,
   0.174583,
   0.173735,
   0.172559,
   0.171228,
   0.169940,
   0.168892,
   0.168226,
   0.167851,
   0.167620,
   0.167385,
   0.167033,
   0.166579,
   0.166075,
   0.165570,
   0.165123,
   0.164837,
   0.164822,
   0.165190,
   0.165973,
   0.166891,
   0.167582,
   0.167685,
   0.166965,
   0.165693,
   0.164266,
   0.163078,
   0.162428,
   0.162212,
   0.162230,
   0.162278,
   0.162187,
   0.161911,
   0.161434,
   0.160742,
   0.159843,
   0.158836,
   0.157844,
   0.156988,
   0.156363,
   0.155946,
   0.155689,
   0.155540,
   0.155446,
   0.155329,
   0.155106,
   0.154695,
   0.154066,
   0.153401,
   0.152933,
   0.152897,
   0.153421,
   0.154220,
   0.154906,
   0.155087,
   0.154516,
   0.153506,
   0.152514,
   0.151996,
   0.152271,
   0.153124,
   0.154205,
   0.155161,
   0.155668,
   0.155511,
   0.154497,
   0.152436,
   0.149301,
   0.145717,
   0.142471,
   0.140352,
   0.139936,
   0.140956,
   0.142933,
   0.145388
};

#endif
