#ifndef _A0V_H_
#define _A0V_H_

/* spectrum for a0v star           */
/* number of elements = 1895       */

static double _a0v_lambda[] = {
   1150.000000,
   1155.000000,
   1160.000000,
   1165.000000,
   1170.000000,
   1175.000000,
   1180.000000,
   1185.000000,
   1190.000000,
   1195.000000,
   1200.000000,
   1205.000000,
   1210.000000,
   1215.000000,
   1220.000000,
   1225.000000,
   1230.000000,
   1235.000000,
   1240.000000,
   1245.000000,
   1250.000000,
   1255.000000,
   1260.000000,
   1265.000000,
   1270.000000,
   1275.000000,
   1280.000000,
   1285.000000,
   1290.000000,
   1295.000000,
   1300.000000,
   1305.000000,
   1310.000000,
   1315.000000,
   1320.000000,
   1325.000000,
   1330.000000,
   1335.000000,
   1340.000000,
   1345.000000,
   1350.000000,
   1355.000000,
   1360.000000,
   1365.000000,
   1370.000000,
   1375.000000,
   1380.000000,
   1385.000000,
   1390.000000,
   1395.000000,
   1400.000000,
   1405.000000,
   1410.000000,
   1415.000000,
   1420.000000,
   1425.000000,
   1430.000000,
   1435.000000,
   1440.000000,
   1445.000000,
   1450.000000,
   1455.000000,
   1460.000000,
   1465.000000,
   1470.000000,
   1475.000000,
   1480.000000,
   1485.000000,
   1490.000000,
   1495.000000,
   1500.000000,
   1505.000000,
   1510.000000,
   1515.000000,
   1520.000000,
   1525.000000,
   1530.000000,
   1535.000000,
   1540.000000,
   1545.000000,
   1550.000000,
   1555.000000,
   1560.000000,
   1565.000000,
   1570.000000,
   1575.000000,
   1580.000000,
   1585.000000,
   1590.000000,
   1595.000000,
   1600.000000,
   1605.000000,
   1610.000000,
   1615.000000,
   1620.000000,
   1625.000000,
   1630.000000,
   1635.000000,
   1640.000000,
   1645.000000,
   1650.000000,
   1655.000000,
   1660.000000,
   1665.000000,
   1670.000000,
   1675.000000,
   1680.000000,
   1685.000000,
   1690.000000,
   1695.000000,
   1700.000000,
   1705.000000,
   1710.000000,
   1715.000000,
   1720.000000,
   1725.000000,
   1730.000000,
   1735.000000,
   1740.000000,
   1745.000000,
   1750.000000,
   1755.000000,
   1760.000000,
   1765.000000,
   1770.000000,
   1775.000000,
   1780.000000,
   1785.000000,
   1790.000000,
   1795.000000,
   1800.000000,
   1805.000000,
   1810.000000,
   1815.000000,
   1820.000000,
   1825.000000,
   1830.000000,
   1835.000000,
   1840.000000,
   1845.000000,
   1850.000000,
   1855.000000,
   1860.000000,
   1865.000000,
   1870.000000,
   1875.000000,
   1880.000000,
   1885.000000,
   1890.000000,
   1895.000000,
   1900.000000,
   1905.000000,
   1910.000000,
   1915.000000,
   1920.000000,
   1925.000000,
   1930.000000,
   1935.000000,
   1940.000000,
   1945.000000,
   1950.000000,
   1955.000000,
   1960.000000,
   1965.000000,
   1970.000000,
   1975.000000,
   1980.000000,
   1985.000000,
   1990.000000,
   1995.000000,
   2000.000000,
   2005.000000,
   2010.000000,
   2015.000000,
   2020.000000,
   2025.000000,
   2030.000000,
   2035.000000,
   2040.000000,
   2045.000000,
   2050.000000,
   2055.000000,
   2060.000000,
   2065.000000,
   2070.000000,
   2075.000000,
   2080.000000,
   2085.000000,
   2090.000000,
   2095.000000,
   2100.000000,
   2105.000000,
   2110.000000,
   2115.000000,
   2120.000000,
   2125.000000,
   2130.000000,
   2135.000000,
   2140.000000,
   2145.000000,
   2150.000000,
   2155.000000,
   2160.000000,
   2165.000000,
   2170.000000,
   2175.000000,
   2180.000000,
   2185.000000,
   2190.000000,
   2195.000000,
   2200.000000,
   2205.000000,
   2210.000000,
   2215.000000,
   2220.000000,
   2225.000000,
   2230.000000,
   2235.000000,
   2240.000000,
   2245.000000,
   2250.000000,
   2255.000000,
   2260.000000,
   2265.000000,
   2270.000000,
   2275.000000,
   2280.000000,
   2285.000000,
   2290.000000,
   2295.000000,
   2300.000000,
   2305.000000,
   2310.000000,
   2315.000000,
   2320.000000,
   2325.000000,
   2330.000000,
   2335.000000,
   2340.000000,
   2345.000000,
   2350.000000,
   2355.000000,
   2360.000000,
   2365.000000,
   2370.000000,
   2375.000000,
   2380.000000,
   2385.000000,
   2390.000000,
   2395.000000,
   2400.000000,
   2405.000000,
   2410.000000,
   2415.000000,
   2420.000000,
   2425.000000,
   2430.000000,
   2435.000000,
   2440.000000,
   2445.000000,
   2450.000000,
   2455.000000,
   2460.000000,
   2465.000000,
   2470.000000,
   2475.000000,
   2480.000000,
   2485.000000,
   2490.000000,
   2495.000000,
   2500.000000,
   2505.000000,
   2510.000000,
   2515.000000,
   2520.000000,
   2525.000000,
   2530.000000,
   2535.000000,
   2540.000000,
   2545.000000,
   2550.000000,
   2555.000000,
   2560.000000,
   2565.000000,
   2570.000000,
   2575.000000,
   2580.000000,
   2585.000000,
   2590.000000,
   2595.000000,
   2600.000000,
   2605.000000,
   2610.000000,
   2615.000000,
   2620.000000,
   2625.000000,
   2630.000000,
   2635.000000,
   2640.000000,
   2645.000000,
   2650.000000,
   2655.000000,
   2660.000000,
   2665.000000,
   2670.000000,
   2675.000000,
   2680.000000,
   2685.000000,
   2690.000000,
   2695.000000,
   2700.000000,
   2705.000000,
   2710.000000,
   2715.000000,
   2720.000000,
   2725.000000,
   2730.000000,
   2735.000000,
   2740.000000,
   2745.000000,
   2750.000000,
   2755.000000,
   2760.000000,
   2765.000000,
   2770.000000,
   2775.000000,
   2780.000000,
   2785.000000,
   2790.000000,
   2795.000000,
   2800.000000,
   2805.000000,
   2810.000000,
   2815.000000,
   2820.000000,
   2825.000000,
   2830.000000,
   2835.000000,
   2840.000000,
   2845.000000,
   2850.000000,
   2855.000000,
   2860.000000,
   2865.000000,
   2870.000000,
   2875.000000,
   2880.000000,
   2885.000000,
   2890.000000,
   2895.000000,
   2900.000000,
   2905.000000,
   2910.000000,
   2915.000000,
   2920.000000,
   2925.000000,
   2930.000000,
   2935.000000,
   2940.000000,
   2945.000000,
   2950.000000,
   2955.000000,
   2960.000000,
   2965.000000,
   2970.000000,
   2975.000000,
   2980.000000,
   2985.000000,
   2990.000000,
   2995.000000,
   3000.000000,
   3005.000000,
   3010.000000,
   3015.000000,
   3020.000000,
   3025.000000,
   3030.000000,
   3035.000000,
   3040.000000,
   3045.000000,
   3050.000000,
   3055.000000,
   3060.000000,
   3065.000000,
   3070.000000,
   3075.000000,
   3080.000000,
   3085.000000,
   3090.000000,
   3095.000000,
   3100.000000,
   3105.000000,
   3110.000000,
   3115.000000,
   3120.000000,
   3125.000000,
   3130.000000,
   3135.000000,
   3140.000000,
   3145.000000,
   3150.000000,
   3155.000000,
   3160.000000,
   3165.000000,
   3170.000000,
   3175.000000,
   3180.000000,
   3185.000000,
   3190.000000,
   3195.000000,
   3200.000000,
   3205.000000,
   3210.000000,
   3215.000000,
   3220.000000,
   3225.000000,
   3230.000000,
   3235.000000,
   3240.000000,
   3245.000000,
   3250.000000,
   3255.000000,
   3260.000000,
   3265.000000,
   3270.000000,
   3275.000000,
   3280.000000,
   3285.000000,
   3290.000000,
   3295.000000,
   3300.000000,
   3305.000000,
   3310.000000,
   3315.000000,
   3320.000000,
   3325.000000,
   3330.000000,
   3335.000000,
   3340.000000,
   3345.000000,
   3350.000000,
   3355.000000,
   3360.000000,
   3365.000000,
   3370.000000,
   3375.000000,
   3380.000000,
   3385.000000,
   3390.000000,
   3395.000000,
   3400.000000,
   3405.000000,
   3410.000000,
   3415.000000,
   3420.000000,
   3425.000000,
   3430.000000,
   3435.000000,
   3440.000000,
   3445.000000,
   3450.000000,
   3455.000000,
   3460.000000,
   3465.000000,
   3470.000000,
   3475.000000,
   3480.000000,
   3485.000000,
   3490.000000,
   3495.000000,
   3500.000000,
   3505.000000,
   3510.000000,
   3515.000000,
   3520.000000,
   3525.000000,
   3530.000000,
   3535.000000,
   3540.000000,
   3545.000000,
   3550.000000,
   3555.000000,
   3560.000000,
   3565.000000,
   3570.000000,
   3575.000000,
   3580.000000,
   3585.000000,
   3590.000000,
   3595.000000,
   3600.000000,
   3605.000000,
   3610.000000,
   3615.000000,
   3620.000000,
   3625.000000,
   3630.000000,
   3635.000000,
   3640.000000,
   3645.000000,
   3650.000000,
   3655.000000,
   3660.000000,
   3665.000000,
   3670.000000,
   3675.000000,
   3680.000000,
   3685.000000,
   3690.000000,
   3695.000000,
   3700.000000,
   3705.000000,
   3710.000000,
   3715.000000,
   3720.000000,
   3725.000000,
   3730.000000,
   3735.000000,
   3740.000000,
   3745.000000,
   3750.000000,
   3755.000000,
   3760.000000,
   3765.000000,
   3770.000000,
   3775.000000,
   3780.000000,
   3785.000000,
   3790.000000,
   3795.000000,
   3800.000000,
   3805.000000,
   3810.000000,
   3815.000000,
   3820.000000,
   3825.000000,
   3830.000000,
   3835.000000,
   3840.000000,
   3845.000000,
   3850.000000,
   3855.000000,
   3860.000000,
   3865.000000,
   3870.000000,
   3875.000000,
   3880.000000,
   3885.000000,
   3890.000000,
   3895.000000,
   3900.000000,
   3905.000000,
   3910.000000,
   3915.000000,
   3920.000000,
   3925.000000,
   3930.000000,
   3935.000000,
   3940.000000,
   3945.000000,
   3950.000000,
   3955.000000,
   3960.000000,
   3965.000000,
   3970.000000,
   3975.000000,
   3980.000000,
   3985.000000,
   3990.000000,
   3995.000000,
   4000.000000,
   4005.000000,
   4010.000000,
   4015.000000,
   4020.000000,
   4025.000000,
   4030.000000,
   4035.000000,
   4040.000000,
   4045.000000,
   4050.000000,
   4055.000000,
   4060.000000,
   4065.000000,
   4070.000000,
   4075.000000,
   4080.000000,
   4085.000000,
   4090.000000,
   4095.000000,
   4100.000000,
   4105.000000,
   4110.000000,
   4115.000000,
   4120.000000,
   4125.000000,
   4130.000000,
   4135.000000,
   4140.000000,
   4145.000000,
   4150.000000,
   4155.000000,
   4160.000000,
   4165.000000,
   4170.000000,
   4175.000000,
   4180.000000,
   4185.000000,
   4190.000000,
   4195.000000,
   4200.000000,
   4205.000000,
   4210.000000,
   4215.000000,
   4220.000000,
   4225.000000,
   4230.000000,
   4235.000000,
   4240.000000,
   4245.000000,
   4250.000000,
   4255.000000,
   4260.000000,
   4265.000000,
   4270.000000,
   4275.000000,
   4280.000000,
   4285.000000,
   4290.000000,
   4295.000000,
   4300.000000,
   4305.000000,
   4310.000000,
   4315.000000,
   4320.000000,
   4325.000000,
   4330.000000,
   4335.000000,
   4340.000000,
   4345.000000,
   4350.000000,
   4355.000000,
   4360.000000,
   4365.000000,
   4370.000000,
   4375.000000,
   4380.000000,
   4385.000000,
   4390.000000,
   4395.000000,
   4400.000000,
   4405.000000,
   4410.000000,
   4415.000000,
   4420.000000,
   4425.000000,
   4430.000000,
   4435.000000,
   4440.000000,
   4445.000000,
   4450.000000,
   4455.000000,
   4460.000000,
   4465.000000,
   4470.000000,
   4475.000000,
   4480.000000,
   4485.000000,
   4490.000000,
   4495.000000,
   4500.000000,
   4505.000000,
   4510.000000,
   4515.000000,
   4520.000000,
   4525.000000,
   4530.000000,
   4535.000000,
   4540.000000,
   4545.000000,
   4550.000000,
   4555.000000,
   4560.000000,
   4565.000000,
   4570.000000,
   4575.000000,
   4580.000000,
   4585.000000,
   4590.000000,
   4595.000000,
   4600.000000,
   4605.000000,
   4610.000000,
   4615.000000,
   4620.000000,
   4625.000000,
   4630.000000,
   4635.000000,
   4640.000000,
   4645.000000,
   4650.000000,
   4655.000000,
   4660.000000,
   4665.000000,
   4670.000000,
   4675.000000,
   4680.000000,
   4685.000000,
   4690.000000,
   4695.000000,
   4700.000000,
   4705.000000,
   4710.000000,
   4715.000000,
   4720.000000,
   4725.000000,
   4730.000000,
   4735.000000,
   4740.000000,
   4745.000000,
   4750.000000,
   4755.000000,
   4760.000000,
   4765.000000,
   4770.000000,
   4775.000000,
   4780.000000,
   4785.000000,
   4790.000000,
   4795.000000,
   4800.000000,
   4805.000000,
   4810.000000,
   4815.000000,
   4820.000000,
   4825.000000,
   4830.000000,
   4835.000000,
   4840.000000,
   4845.000000,
   4850.000000,
   4855.000000,
   4860.000000,
   4865.000000,
   4870.000000,
   4875.000000,
   4880.000000,
   4885.000000,
   4890.000000,
   4895.000000,
   4900.000000,
   4905.000000,
   4910.000000,
   4915.000000,
   4920.000000,
   4925.000000,
   4930.000000,
   4935.000000,
   4940.000000,
   4945.000000,
   4950.000000,
   4955.000000,
   4960.000000,
   4965.000000,
   4970.000000,
   4975.000000,
   4980.000000,
   4985.000000,
   4990.000000,
   4995.000000,
   5000.000000,
   5005.000000,
   5010.000000,
   5015.000000,
   5020.000000,
   5025.000000,
   5030.000000,
   5035.000000,
   5040.000000,
   5045.000000,
   5050.000000,
   5055.000000,
   5060.000000,
   5065.000000,
   5070.000000,
   5075.000000,
   5080.000000,
   5085.000000,
   5090.000000,
   5095.000000,
   5100.000000,
   5105.000000,
   5110.000000,
   5115.000000,
   5120.000000,
   5125.000000,
   5130.000000,
   5135.000000,
   5140.000000,
   5145.000000,
   5150.000000,
   5155.000000,
   5160.000000,
   5165.000000,
   5170.000000,
   5175.000000,
   5180.000000,
   5185.000000,
   5190.000000,
   5195.000000,
   5200.000000,
   5205.000000,
   5210.000000,
   5215.000000,
   5220.000000,
   5225.000000,
   5230.000000,
   5235.000000,
   5240.000000,
   5245.000000,
   5250.000000,
   5255.000000,
   5260.000000,
   5265.000000,
   5270.000000,
   5275.000000,
   5280.000000,
   5285.000000,
   5290.000000,
   5295.000000,
   5300.000000,
   5305.000000,
   5310.000000,
   5315.000000,
   5320.000000,
   5325.000000,
   5330.000000,
   5335.000000,
   5340.000000,
   5345.000000,
   5350.000000,
   5355.000000,
   5360.000000,
   5365.000000,
   5370.000000,
   5375.000000,
   5380.000000,
   5385.000000,
   5390.000000,
   5395.000000,
   5400.000000,
   5405.000000,
   5410.000000,
   5415.000000,
   5420.000000,
   5425.000000,
   5430.000000,
   5435.000000,
   5440.000000,
   5445.000000,
   5450.000000,
   5455.000000,
   5460.000000,
   5465.000000,
   5470.000000,
   5475.000000,
   5480.000000,
   5485.000000,
   5490.000000,
   5495.000000,
   5500.000000,
   5505.000000,
   5510.000000,
   5515.000000,
   5520.000000,
   5525.000000,
   5530.000000,
   5535.000000,
   5540.000000,
   5545.000000,
   5550.000000,
   5555.000000,
   5560.000000,
   5565.000000,
   5570.000000,
   5575.000000,
   5580.000000,
   5585.000000,
   5590.000000,
   5595.000000,
   5600.000000,
   5605.000000,
   5610.000000,
   5615.000000,
   5620.000000,
   5625.000000,
   5630.000000,
   5635.000000,
   5640.000000,
   5645.000000,
   5650.000000,
   5655.000000,
   5660.000000,
   5665.000000,
   5670.000000,
   5675.000000,
   5680.000000,
   5685.000000,
   5690.000000,
   5695.000000,
   5700.000000,
   5705.000000,
   5710.000000,
   5715.000000,
   5720.000000,
   5725.000000,
   5730.000000,
   5735.000000,
   5740.000000,
   5745.000000,
   5750.000000,
   5755.000000,
   5760.000000,
   5765.000000,
   5770.000000,
   5775.000000,
   5780.000000,
   5785.000000,
   5790.000000,
   5795.000000,
   5800.000000,
   5805.000000,
   5810.000000,
   5815.000000,
   5820.000000,
   5825.000000,
   5830.000000,
   5835.000000,
   5840.000000,
   5845.000000,
   5850.000000,
   5855.000000,
   5860.000000,
   5865.000000,
   5870.000000,
   5875.000000,
   5880.000000,
   5885.000000,
   5890.000000,
   5895.000000,
   5900.000000,
   5905.000000,
   5910.000000,
   5915.000000,
   5920.000000,
   5925.000000,
   5930.000000,
   5935.000000,
   5940.000000,
   5945.000000,
   5950.000000,
   5955.000000,
   5960.000000,
   5965.000000,
   5970.000000,
   5975.000000,
   5980.000000,
   5985.000000,
   5990.000000,
   5995.000000,
   6000.000000,
   6005.000000,
   6010.000000,
   6015.000000,
   6020.000000,
   6025.000000,
   6030.000000,
   6035.000000,
   6040.000000,
   6045.000000,
   6050.000000,
   6055.000000,
   6060.000000,
   6065.000000,
   6070.000000,
   6075.000000,
   6080.000000,
   6085.000000,
   6090.000000,
   6095.000000,
   6100.000000,
   6105.000000,
   6110.000000,
   6115.000000,
   6120.000000,
   6125.000000,
   6130.000000,
   6135.000000,
   6140.000000,
   6145.000000,
   6150.000000,
   6155.000000,
   6160.000000,
   6165.000000,
   6170.000000,
   6175.000000,
   6180.000000,
   6185.000000,
   6190.000000,
   6195.000000,
   6200.000000,
   6205.000000,
   6210.000000,
   6215.000000,
   6220.000000,
   6225.000000,
   6230.000000,
   6235.000000,
   6240.000000,
   6245.000000,
   6250.000000,
   6255.000000,
   6260.000000,
   6265.000000,
   6270.000000,
   6275.000000,
   6280.000000,
   6285.000000,
   6290.000000,
   6295.000000,
   6300.000000,
   6305.000000,
   6310.000000,
   6315.000000,
   6320.000000,
   6325.000000,
   6330.000000,
   6335.000000,
   6340.000000,
   6345.000000,
   6350.000000,
   6355.000000,
   6360.000000,
   6365.000000,
   6370.000000,
   6375.000000,
   6380.000000,
   6385.000000,
   6390.000000,
   6395.000000,
   6400.000000,
   6405.000000,
   6410.000000,
   6415.000000,
   6420.000000,
   6425.000000,
   6430.000000,
   6435.000000,
   6440.000000,
   6445.000000,
   6450.000000,
   6455.000000,
   6460.000000,
   6465.000000,
   6470.000000,
   6475.000000,
   6480.000000,
   6485.000000,
   6490.000000,
   6495.000000,
   6500.000000,
   6505.000000,
   6510.000000,
   6515.000000,
   6520.000000,
   6525.000000,
   6530.000000,
   6535.000000,
   6540.000000,
   6545.000000,
   6550.000000,
   6555.000000,
   6560.000000,
   6565.000000,
   6570.000000,
   6575.000000,
   6580.000000,
   6585.000000,
   6590.000000,
   6595.000000,
   6600.000000,
   6605.000000,
   6610.000000,
   6615.000000,
   6620.000000,
   6625.000000,
   6630.000000,
   6635.000000,
   6640.000000,
   6645.000000,
   6650.000000,
   6655.000000,
   6660.000000,
   6665.000000,
   6670.000000,
   6675.000000,
   6680.000000,
   6685.000000,
   6690.000000,
   6695.000000,
   6700.000000,
   6705.000000,
   6710.000000,
   6715.000000,
   6720.000000,
   6725.000000,
   6730.000000,
   6735.000000,
   6740.000000,
   6745.000000,
   6750.000000,
   6755.000000,
   6760.000000,
   6765.000000,
   6770.000000,
   6775.000000,
   6780.000000,
   6785.000000,
   6790.000000,
   6795.000000,
   6800.000000,
   6805.000000,
   6810.000000,
   6815.000000,
   6820.000000,
   6825.000000,
   6830.000000,
   6835.000000,
   6840.000000,
   6845.000000,
   6850.000000,
   6855.000000,
   6860.000000,
   6865.000000,
   6870.000000,
   6875.000000,
   6880.000000,
   6885.000000,
   6890.000000,
   6895.000000,
   6900.000000,
   6905.000000,
   6910.000000,
   6915.000000,
   6920.000000,
   6925.000000,
   6930.000000,
   6935.000000,
   6940.000000,
   6945.000000,
   6950.000000,
   6955.000000,
   6960.000000,
   6965.000000,
   6970.000000,
   6975.000000,
   6980.000000,
   6985.000000,
   6990.000000,
   6995.000000,
   7000.000000,
   7005.000000,
   7010.000000,
   7015.000000,
   7020.000000,
   7025.000000,
   7030.000000,
   7035.000000,
   7040.000000,
   7045.000000,
   7050.000000,
   7055.000000,
   7060.000000,
   7065.000000,
   7070.000000,
   7075.000000,
   7080.000000,
   7085.000000,
   7090.000000,
   7095.000000,
   7100.000000,
   7105.000000,
   7110.000000,
   7115.000000,
   7120.000000,
   7125.000000,
   7130.000000,
   7135.000000,
   7140.000000,
   7145.000000,
   7150.000000,
   7155.000000,
   7160.000000,
   7165.000000,
   7170.000000,
   7175.000000,
   7180.000000,
   7185.000000,
   7190.000000,
   7195.000000,
   7200.000000,
   7205.000000,
   7210.000000,
   7215.000000,
   7220.000000,
   7225.000000,
   7230.000000,
   7235.000000,
   7240.000000,
   7245.000000,
   7250.000000,
   7255.000000,
   7260.000000,
   7265.000000,
   7270.000000,
   7275.000000,
   7280.000000,
   7285.000000,
   7290.000000,
   7295.000000,
   7300.000000,
   7305.000000,
   7310.000000,
   7315.000000,
   7320.000000,
   7325.000000,
   7330.000000,
   7335.000000,
   7340.000000,
   7345.000000,
   7350.000000,
   7355.000000,
   7360.000000,
   7365.000000,
   7370.000000,
   7375.000000,
   7380.000000,
   7385.000000,
   7390.000000,
   7395.000000,
   7400.000000,
   7405.000000,
   7410.000000,
   7415.000000,
   7420.000000,
   7425.000000,
   7430.000000,
   7435.000000,
   7440.000000,
   7445.000000,
   7450.000000,
   7455.000000,
   7460.000000,
   7465.000000,
   7470.000000,
   7475.000000,
   7480.000000,
   7485.000000,
   7490.000000,
   7495.000000,
   7500.000000,
   7505.000000,
   7510.000000,
   7515.000000,
   7520.000000,
   7525.000000,
   7530.000000,
   7535.000000,
   7540.000000,
   7545.000000,
   7550.000000,
   7555.000000,
   7560.000000,
   7565.000000,
   7570.000000,
   7575.000000,
   7580.000000,
   7585.000000,
   7590.000000,
   7595.000000,
   7600.000000,
   7605.000000,
   7610.000000,
   7615.000000,
   7620.000000,
   7625.000000,
   7630.000000,
   7635.000000,
   7640.000000,
   7645.000000,
   7650.000000,
   7655.000000,
   7660.000000,
   7665.000000,
   7670.000000,
   7675.000000,
   7680.000000,
   7685.000000,
   7690.000000,
   7695.000000,
   7700.000000,
   7705.000000,
   7710.000000,
   7715.000000,
   7720.000000,
   7725.000000,
   7730.000000,
   7735.000000,
   7740.000000,
   7745.000000,
   7750.000000,
   7755.000000,
   7760.000000,
   7765.000000,
   7770.000000,
   7775.000000,
   7780.000000,
   7785.000000,
   7790.000000,
   7795.000000,
   7800.000000,
   7805.000000,
   7810.000000,
   7815.000000,
   7820.000000,
   7825.000000,
   7830.000000,
   7835.000000,
   7840.000000,
   7845.000000,
   7850.000000,
   7855.000000,
   7860.000000,
   7865.000000,
   7870.000000,
   7875.000000,
   7880.000000,
   7885.000000,
   7890.000000,
   7895.000000,
   7900.000000,
   7905.000000,
   7910.000000,
   7915.000000,
   7920.000000,
   7925.000000,
   7930.000000,
   7935.000000,
   7940.000000,
   7945.000000,
   7950.000000,
   7955.000000,
   7960.000000,
   7965.000000,
   7970.000000,
   7975.000000,
   7980.000000,
   7985.000000,
   7990.000000,
   7995.000000,
   8000.000000,
   8005.000000,
   8010.000000,
   8015.000000,
   8020.000000,
   8025.000000,
   8030.000000,
   8035.000000,
   8040.000000,
   8045.000000,
   8050.000000,
   8055.000000,
   8060.000000,
   8065.000000,
   8070.000000,
   8075.000000,
   8080.000000,
   8085.000000,
   8090.000000,
   8095.000000,
   8100.000000,
   8105.000000,
   8110.000000,
   8115.000000,
   8120.000000,
   8125.000000,
   8130.000000,
   8135.000000,
   8140.000000,
   8145.000000,
   8150.000000,
   8155.000000,
   8160.000000,
   8165.000000,
   8170.000000,
   8175.000000,
   8180.000000,
   8185.000000,
   8190.000000,
   8195.000000,
   8200.000000,
   8205.000000,
   8210.000000,
   8215.000000,
   8220.000000,
   8225.000000,
   8230.000000,
   8235.000000,
   8240.000000,
   8245.000000,
   8250.000000,
   8255.000000,
   8260.000000,
   8265.000000,
   8270.000000,
   8275.000000,
   8280.000000,
   8285.000000,
   8290.000000,
   8295.000000,
   8300.000000,
   8305.000000,
   8310.000000,
   8315.000000,
   8320.000000,
   8325.000000,
   8330.000000,
   8335.000000,
   8340.000000,
   8345.000000,
   8350.000000,
   8355.000000,
   8360.000000,
   8365.000000,
   8370.000000,
   8375.000000,
   8380.000000,
   8385.000000,
   8390.000000,
   8395.000000,
   8400.000000,
   8405.000000,
   8410.000000,
   8415.000000,
   8420.000000,
   8425.000000,
   8430.000000,
   8435.000000,
   8440.000000,
   8445.000000,
   8450.000000,
   8455.000000,
   8460.000000,
   8465.000000,
   8470.000000,
   8475.000000,
   8480.000000,
   8485.000000,
   8490.000000,
   8495.000000,
   8500.000000,
   8505.000000,
   8510.000000,
   8515.000000,
   8520.000000,
   8525.000000,
   8530.000000,
   8535.000000,
   8540.000000,
   8545.000000,
   8550.000000,
   8555.000000,
   8560.000000,
   8565.000000,
   8570.000000,
   8575.000000,
   8580.000000,
   8585.000000,
   8590.000000,
   8595.000000,
   8600.000000,
   8605.000000,
   8610.000000,
   8615.000000,
   8620.000000,
   8625.000000,
   8630.000000,
   8635.000000,
   8640.000000,
   8645.000000,
   8650.000000,
   8655.000000,
   8660.000000,
   8665.000000,
   8670.000000,
   8675.000000,
   8680.000000,
   8685.000000,
   8690.000000,
   8695.000000,
   8700.000000,
   8705.000000,
   8710.000000,
   8715.000000,
   8720.000000,
   8725.000000,
   8730.000000,
   8735.000000,
   8740.000000,
   8745.000000,
   8750.000000,
   8755.000000,
   8760.000000,
   8765.000000,
   8770.000000,
   8775.000000,
   8780.000000,
   8785.000000,
   8790.000000,
   8795.000000,
   8800.000000,
   8805.000000,
   8810.000000,
   8815.000000,
   8820.000000,
   8825.000000,
   8830.000000,
   8835.000000,
   8840.000000,
   8845.000000,
   8850.000000,
   8855.000000,
   8860.000000,
   8865.000000,
   8870.000000,
   8875.000000,
   8880.000000,
   8885.000000,
   8890.000000,
   8895.000000,
   8900.000000,
   8905.000000,
   8910.000000,
   8915.000000,
   8920.000000,
   8925.000000,
   8930.000000,
   8935.000000,
   8940.000000,
   8945.000000,
   8950.000000,
   8955.000000,
   8960.000000,
   8965.000000,
   8970.000000,
   8975.000000,
   8980.000000,
   8985.000000,
   8990.000000,
   8995.000000,
   9000.000000,
   9005.000000,
   9010.000000,
   9015.000000,
   9020.000000,
   9025.000000,
   9030.000000,
   9035.000000,
   9040.000000,
   9045.000000,
   9050.000000,
   9055.000000,
   9060.000000,
   9065.000000,
   9070.000000,
   9075.000000,
   9080.000000,
   9085.000000,
   9090.000000,
   9095.000000,
   9100.000000,
   9105.000000,
   9110.000000,
   9115.000000,
   9120.000000,
   9125.000000,
   9130.000000,
   9135.000000,
   9140.000000,
   9145.000000,
   9150.000000,
   9155.000000,
   9160.000000,
   9165.000000,
   9170.000000,
   9175.000000,
   9180.000000,
   9185.000000,
   9190.000000,
   9195.000000,
   9200.000000,
   9205.000000,
   9210.000000,
   9215.000000,
   9220.000000,
   9225.000000,
   9230.000000,
   9235.000000,
   9240.000000,
   9245.000000,
   9250.000000,
   9255.000000,
   9260.000000,
   9265.000000,
   9270.000000,
   9275.000000,
   9280.000000,
   9285.000000,
   9290.000000,
   9295.000000,
   9300.000000,
   9305.000000,
   9310.000000,
   9315.000000,
   9320.000000,
   9325.000000,
   9330.000000,
   9335.000000,
   9340.000000,
   9345.000000,
   9350.000000,
   9355.000000,
   9360.000000,
   9365.000000,
   9370.000000,
   9375.000000,
   9380.000000,
   9385.000000,
   9390.000000,
   9395.000000,
   9400.000000,
   9405.000000,
   9410.000000,
   9415.000000,
   9420.000000,
   9425.000000,
   9430.000000,
   9435.000000,
   9440.000000,
   9445.000000,
   9450.000000,
   9455.000000,
   9460.000000,
   9465.000000,
   9470.000000,
   9475.000000,
   9480.000000,
   9485.000000,
   9490.000000,
   9495.000000,
   9500.000000,
   9505.000000,
   9510.000000,
   9515.000000,
   9520.000000,
   9525.000000,
   9530.000000,
   9535.000000,
   9540.000000,
   9545.000000,
   9550.000000,
   9555.000000,
   9560.000000,
   9565.000000,
   9570.000000,
   9575.000000,
   9580.000000,
   9585.000000,
   9590.000000,
   9595.000000,
   9600.000000,
   9605.000000,
   9610.000000,
   9615.000000,
   9620.000000,
   9625.000000,
   9630.000000,
   9635.000000,
   9640.000000,
   9645.000000,
   9650.000000,
   9655.000000,
   9660.000000,
   9665.000000,
   9670.000000,
   9675.000000,
   9680.000000,
   9685.000000,
   9690.000000,
   9695.000000,
   9700.000000,
   9705.000000,
   9710.000000,
   9715.000000,
   9720.000000,
   9725.000000,
   9730.000000,
   9735.000000,
   9740.000000,
   9745.000000,
   9750.000000,
   9755.000000,
   9760.000000,
   9765.000000,
   9770.000000,
   9775.000000,
   9780.000000,
   9785.000000,
   9790.000000,
   9795.000000,
   9800.000000,
   9805.000000,
   9810.000000,
   9815.000000,
   9820.000000,
   9825.000000,
   9830.000000,
   9835.000000,
   9840.000000,
   9845.000000,
   9850.000000,
   9855.000000,
   9860.000000,
   9865.000000,
   9870.000000,
   9875.000000,
   9880.000000,
   9885.000000,
   9890.000000,
   9895.000000,
   9900.000000,
   9905.000000,
   9910.000000,
   9915.000000,
   9920.000000,
   9925.000000,
   9930.000000,
   9935.000000,
   9940.000000,
   9945.000000,
   9950.000000,
   9955.000000,
   9960.000000,
   9965.000000,
   9970.000000,
   9975.000000,
   9980.000000,
   9985.000000,
   9990.000000,
   9995.000000,
   10000.000000,
   10005.000000,
   10010.000000,
   10015.000000,
   10020.000000,
   10025.000000,
   10030.000000,
   10035.000000,
   10040.000000,
   10045.000000,
   10050.000000,
   10055.000000,
   10060.000000,
   10065.000000,
   10070.000000,
   10075.000000,
   10080.000000,
   10085.000000,
   10090.000000,
   10095.000000,
   10100.000000,
   10105.000000,
   10110.000000,
   10115.000000,
   10120.000000,
   10125.000000,
   10130.000000,
   10135.000000,
   10140.000000,
   10145.000000,
   10150.000000,
   10155.000000,
   10160.000000,
   10165.000000,
   10170.000000,
   10175.000000,
   10180.000000,
   10185.000000,
   10190.000000,
   10195.000000,
   10200.000000,
   10205.000000,
   10210.000000,
   10215.000000,
   10220.000000,
   10225.000000,
   10230.000000,
   10235.000000,
   10240.000000,
   10245.000000,
   10250.000000,
   10255.000000,
   10260.000000,
   10265.000000,
   10270.000000,
   10275.000000,
   10280.000000,
   10285.000000,
   10290.000000,
   10295.000000,
   10300.000000,
   10305.000000,
   10310.000000,
   10315.000000,
   10320.000000,
   10325.000000,
   10330.000000,
   10335.000000,
   10340.000000,
   10345.000000,
   10350.000000,
   10355.000000,
   10360.000000,
   10365.000000,
   10370.000000,
   10375.000000,
   10380.000000,
   10385.000000,
   10390.000000,
   10395.000000,
   10400.000000,
   10405.000000,
   10410.000000,
   10415.000000,
   10420.000000,
   10425.000000,
   10430.000000,
   10435.000000,
   10440.000000,
   10445.000000,
   10450.000000,
   10455.000000,
   10460.000000,
   10465.000000,
   10470.000000,
   10475.000000,
   10480.000000,
   10485.000000,
   10490.000000,
   10495.000000,
   10500.000000,
   10505.000000,
   10510.000000,
   10515.000000,
   10520.000000,
   10525.000000,
   10530.000000,
   10535.000000,
   10540.000000,
   10545.000000,
   10550.000000,
   10555.000000,
   10560.000000,
   10565.000000,
   10570.000000,
   10575.000000,
   10580.000000,
   10585.000000,
   10590.000000,
   10595.000000,
   10600.000000,
   10605.000000,
   10610.000000,
   10615.000000,
   10620.000000
};

static double _a0v_flux[] = {
   0.181751,
   0.203323,
   0.142062,
   0.000000,
   0.005560,
   0.000000,
   0.000000,
   0.000000,
   0.000000,
   0.000000,
   0.001004,
   0.010154,
   0.022296,
   0.030977,
   0.038257,
   0.032880,
   0.034612,
   0.036263,
   0.032804,
   0.044974,
   0.089780,
   0.107513,
   0.102995,
   0.163623,
   0.287057,
   0.339408,
   0.464954,
   0.543897,
   0.583538,
   0.652544,
   0.568330,
   0.465444,
   0.558746,
   0.815444,
   0.917040,
   0.916888,
   0.866914,
   0.921322,
   1.129171,
   1.148396,
   1.041099,
   0.968124,
   0.997185,
   1.005895,
   1.014634,
   1.075655,
   1.069204,
   1.104056,
   1.125309,
   1.078729,
   1.100604,
   1.154207,
   1.137578,
   1.184795,
   1.269107,
   1.304509,
   1.219985,
   1.186735,
   1.309849,
   1.406803,
   1.486661,
   1.484581,
   1.451358,
   1.365868,
   1.315616,
   1.332583,
   1.387421,
   1.519950,
   1.627695,
   1.648123,
   1.684521,
   1.548495,
   1.372714,
   1.427650,
   1.563507,
   1.455529,
   1.410062,
   1.457652,
   1.578568,
   1.603379,
   1.561301,
   1.503601,
   1.469595,
   1.540034,
   1.513548,
   1.531422,
   1.650600,
   1.634291,
   1.604415,
   1.584613,
   1.620305,
   1.574995,
   1.566226,
   1.570178,
   1.545103,
   1.548708,
   1.565555,
   1.535559,
   1.496622,
   1.527790,
   1.456422,
   1.307141,
   1.376759,
   1.469498,
   1.334264,
   1.411232,
   1.529826,
   1.533790,
   1.519363,
   1.501917,
   1.495160,
   1.476834,
   1.498110,
   1.489971,
   1.439100,
   1.444888,
   1.504957,
   1.499872,
   1.520960,
   1.557133,
   1.597241,
   1.650849,
   1.554383,
   1.481540,
   1.547907,
   1.618634,
   1.611885,
   1.427459,
   1.240522,
   1.564539,
   1.692430,
   1.622366,
   1.610677,
   1.624510,
   1.636437,
   1.615233,
   1.570097,
   1.545615,
   1.474328,
   1.450122,
   1.492966,
   1.493837,
   1.502229,
   1.523196,
   1.565632,
   1.559510,
   1.559310,
   1.550405,
   1.515476,
   1.466529,
   1.432495,
   1.451178,
   1.454121,
   1.449397,
   1.450922,
   1.451281,
   1.474975,
   1.494214,
   1.510554,
   1.513651,
   1.516806,
   1.517341,
   1.512847,
   1.494291,
   1.556980,
   1.612514,
   1.577098,
   1.575749,
   1.462473,
   1.346299,
   1.415970,
   1.447126,
   1.408796,
   1.410385,
   1.405684,
   1.385200,
   1.423803,
   1.394906,
   1.351791,
   1.385793,
   1.408168,
   1.415598,
   1.402481,
   1.358988,
   1.377304,
   1.463738,
   1.526606,
   1.540470,
   1.515747,
   1.444250,
   1.376611,
   1.372526,
   1.412419,
   1.391838,
   1.357974,
   1.441591,
   1.419030,
   1.311450,
   1.229758,
   1.269933,
   1.359260,
   1.393734,
   1.427121,
   1.305439,
   1.240546,
   1.179187,
   1.182986,
   1.288429,
   1.352522,
   1.378479,
   1.397609,
   1.314984,
   1.219098,
   1.155421,
   1.142993,
   1.144974,
   1.168503,
   1.144320,
   1.177647,
   1.117671,
   1.161664,
   1.164579,
   1.148342,
   1.143074,
   1.158862,
   1.155643,
   1.167622,
   1.178513,
   1.231651,
   1.258505,
   1.227084,
   1.213497,
   1.234254,
   1.221961,
   1.118709,
   1.114940,
   1.162866,
   1.144673,
   1.104673,
   1.082394,
   1.064599,
   1.028451,
   1.040521,
   1.022600,
   1.032880,
   1.016219,
   1.081483,
   1.011780,
   0.897727,
   0.887073,
   0.960789,
   0.945400,
   0.878021,
   0.924556,
   0.970920,
   1.009371,
   1.064369,
   1.017737,
   0.982849,
   1.040864,
   1.086633,
   1.097703,
   1.102613,
   1.077132,
   1.015053,
   0.990589,
   1.003847,
   0.959149,
   0.914129,
   0.890856,
   1.048169,
   1.032850,
   0.991732,
   1.031929,
   0.983655,
   0.927448,
   0.917317,
   0.986263,
   0.991221,
   0.941384,
   0.958250,
   0.986258,
   0.994516,
   1.016402,
   1.074358,
   1.039314,
   0.793666,
   0.766393,
   0.950952,
   1.041492,
   1.040669,
   1.018071,
   1.025710,
   1.015422,
   1.048844,
   1.039886,
   1.017217,
   1.059603,
   1.064705,
   1.100167,
   1.144326,
   1.150931,
   1.108117,
   1.065427,
   1.011902,
   1.008321,
   1.065549,
   1.090489,
   1.055726,
   0.997226,
   1.015496,
   1.054217,
   0.997694,
   0.992235,
   0.993181,
   0.978159,
   0.996837,
   1.035138,
   1.031072,
   0.980610,
   0.959419,
   0.921392,
   0.938690,
   0.981846,
   0.989572,
   1.026034,
   1.087187,
   1.039397,
   1.013213,
   0.959790,
   0.854565,
   0.847115,
   0.920482,
   1.027540,
   1.068462,
   1.036374,
   1.002689,
   1.023119,
   1.050926,
   1.035849,
   0.998238,
   0.961054,
   0.959937,
   0.992102,
   1.003491,
   0.990969,
   0.981512,
   1.003459,
   1.025574,
   1.007366,
   0.995669,
   1.016709,
   1.076558,
   1.082485,
   1.086017,
   1.040866,
   1.027064,
   1.044562,
   1.042548,
   1.068666,
   1.022596,
   1.065236,
   1.095379,
   1.071008,
   1.061609,
   1.080706,
   1.072428,
   1.054782,
   1.079901,
   1.070195,
   1.075974,
   1.042763,
   1.066428,
   1.042527,
   1.001714,
   1.014394,
   1.019927,
   1.022885,
   1.057637,
   1.051592,
   1.036622,
   1.036418,
   1.005969,
   0.974454,
   0.956507,
   0.972521,
   1.045360,
   1.046632,
   1.013760,
   1.027994,
   1.011138,
   0.982877,
   0.953480,
   0.946203,
   0.965026,
   1.013101,
   1.054124,
   1.007729,
   0.985666,
   1.034042,
   1.038314,
   1.024035,
   1.003496,
   1.025234,
   1.052744,
   1.045524,
   0.998782,
   1.014678,
   1.073331,
   1.071585,
   1.025610,
   1.027123,
   1.028811,
   1.011811,
   0.989788,
   0.979960,
   0.981220,
   0.987170,
   0.988567,
   0.980252,
   0.976231,
   0.988487,
   1.001723,
   1.000031,
   0.992324,
   0.989331,
   0.984206,
   0.971932,
   0.972359,
   0.999411,
   1.018435,
   0.998059,
   0.968613,
   0.964230,
   0.972542,
   0.975001,
   0.974833,
   0.978138,
   0.980742,
   0.977971,
   0.973430,
   0.970812,
   0.965897,
   0.955103,
   0.945304,
   0.942864,
   0.941656,
   0.935501,
   0.930504,
   0.934256,
   0.947981,
   0.968577,
   0.981979,
   0.977178,
   0.966353,
   0.962162,
   0.955995,
   0.939342,
   0.925386,
   0.926828,
   0.932775,
   0.931227,
   0.929353,
   0.934830,
   0.938193,
   0.930411,
   0.921333,
   0.920843,
   0.920065,
   0.910705,
   0.905543,
   0.916023,
   0.922815,
   0.919272,
   0.916501,
   0.917938,
   0.925882,
   0.934025,
   0.934882,
   0.928635,
   0.922378,
   0.919969,
   0.917202,
   0.906070,
   0.894498,
   0.893153,
   0.892547,
   0.887421,
   0.889092,
   0.895562,
   0.897085,
   0.896206,
   0.883098,
   0.881046,
   0.885908,
   0.896548,
   0.899074,
   0.901410,
   0.903462,
   0.900716,
   0.907777,
   0.919733,
   0.921648,
   0.919670,
   0.917523,
   0.908440,
   0.897727,
   0.895790,
   0.904367,
   0.916081,
   0.920332,
   0.942691,
   0.962079,
   1.006473,
   1.015919,
   1.066856,
   1.071680,
   1.023150,
   1.152860,
   1.121979,
   1.014114,
   1.176449,
   1.308511,
   1.203920,
   1.058592,
   1.254845,
   1.547439,
   1.629362,
   1.421449,
   1.132716,
   1.151134,
   1.512220,
   1.808515,
   1.906824,
   1.848355,
   1.605863,
   1.239301,
   1.024814,
   1.288405,
   1.665269,
   1.967488,
   2.133631,
   2.222178,
   2.240900,
   2.131039,
   1.892601,
   1.561640,
   1.171697,
   1.066769,
   1.381757,
   1.757191,
   2.015894,
   2.211767,
   2.313839,
   2.364872,
   2.323770,
   2.086366,
   2.056262,
   2.212616,
   2.212184,
   2.072719,
   1.877199,
   1.559220,
   1.143353,
   0.985721,
   1.275134,
   1.649597,
   1.946936,
   2.155706,
   2.272316,
   2.340788,
   2.364400,
   2.392617,
   2.402697,
   2.406213,
   2.385914,
   2.363976,
   2.362967,
   2.357623,
   2.349137,
   2.356597,
   2.337830,
   2.307925,
   2.256997,
   2.182526,
   2.097172,
   2.005089,
   1.871567,
   1.642101,
   1.327834,
   1.073181,
   1.113944,
   1.364009,
   1.621284,
   1.831318,
   1.968552,
   2.060154,
   2.151280,
   2.214909,
   2.249613,
   2.268199,
   2.269451,
   2.269143,
   2.263573,
   2.225933,
   2.195532,
   2.181200,
   2.181560,
   2.199191,
   2.208719,
   2.211377,
   2.247003,
   2.257165,
   2.229093,
   2.201925,
   2.167549,
   2.153373,
   2.153649,
   2.150010,
   2.124971,
   2.114018,
   2.115392,
   2.109489,
   2.110130,
   2.097033,
   2.117196,
   2.136546,
   2.126377,
   2.083192,
   2.037815,
   1.970364,
   1.932392,
   1.911035,
   1.881848,
   1.810205,
   1.652199,
   1.427604,
   1.148925,
   0.971719,
   1.053994,
   1.269570,
   1.506908,
   1.693613,
   1.824733,
   1.889272,
   1.915232,
   1.919991,
   1.915014,
   1.928407,
   1.935735,
   1.935139,
   1.941841,
   1.942488,
   1.924015,
   1.929782,
   1.935769,
   1.916791,
   1.908540,
   1.901613,
   1.905883,
   1.913008,
   1.904084,
   1.886469,
   1.867539,
   1.852080,
   1.848929,
   1.822841,
   1.831402,
   1.845854,
   1.855295,
   1.858850,
   1.860867,
   1.863026,
   1.848286,
   1.826406,
   1.809914,
   1.796286,
   1.802478,
   1.802790,
   1.771593,
   1.747621,
   1.754564,
   1.764052,
   1.758464,
   1.744937,
   1.739346,
   1.721821,
   1.702466,
   1.710641,
   1.721394,
   1.720887,
   1.727435,
   1.722228,
   1.708244,
   1.708604,
   1.696159,
   1.682961,
   1.680371,
   1.681650,
   1.677869,
   1.681063,
   1.678982,
   1.674366,
   1.659065,
   1.643987,
   1.636964,
   1.640570,
   1.654559,
   1.644642,
   1.641658,
   1.637853,
   1.636871,
   1.625782,
   1.602599,
   1.591068,
   1.592402,
   1.583284,
   1.568989,
   1.568756,
   1.573964,
   1.573592,
   1.563951,
   1.543588,
   1.536354,
   1.534852,
   1.538411,
   1.534401,
   1.532353,
   1.536658,
   1.532649,
   1.507267,
   1.490010,
   1.475463,
   1.464820,
   1.446877,
   1.414371,
   1.382949,
   1.345409,
   1.292800,
   1.205864,
   1.066348,
   0.876355,
   0.740252,
   0.799844,
   0.949182,
   1.085515,
   1.199023,
   1.274462,
   1.326849,
   1.360454,
   1.370639,
   1.381424,
   1.390310,
   1.387375,
   1.369356,
   1.371291,
   1.380753,
   1.375868,
   1.389200,
   1.403090,
   1.396418,
   1.380802,
   1.387028,
   1.393493,
   1.393398,
   1.393729,
   1.373950,
   1.358311,
   1.362219,
   1.351835,
   1.336844,
   1.337480,
   1.334718,
   1.315520,
   1.311738,
   1.328276,
   1.326832,
   1.324649,
   1.320409,
   1.320525,
   1.311644,
   1.308595,
   1.315903,
   1.307889,
   1.308864,
   1.299827,
   1.294157,
   1.303408,
   1.306235,
   1.295048,
   1.286553,
   1.291311,
   1.292820,
   1.300972,
   1.292756,
   1.278494,
   1.275868,
   1.271073,
   1.263027,
   1.260117,
   1.252581,
   1.242483,
   1.234197,
   1.203999,
   1.188146,
   1.207414,
   1.208427,
   1.198629,
   1.203530,
   1.203652,
   1.192720,
   1.181677,
   1.187004,
   1.196549,
   1.201535,
   1.189719,
   1.182821,
   1.181218,
   1.178149,
   1.178211,
   1.173713,
   1.176514,
   1.165546,
   1.138234,
   1.125457,
   1.125626,
   1.131924,
   1.144124,
   1.157735,
   1.160639,
   1.152411,
   1.141087,
   1.128224,
   1.121126,
   1.124102,
   1.115967,
   1.109685,
   1.109900,
   1.113292,
   1.118225,
   1.127562,
   1.130347,
   1.114008,
   1.096971,
   1.088406,
   1.092872,
   1.096639,
   1.099284,
   1.098863,
   1.087443,
   1.075101,
   1.067527,
   1.069422,
   1.072702,
   1.071494,
   1.063486,
   1.056304,
   1.057664,
   1.058368,
   1.058678,
   1.059019,
   1.058570,
   1.057960,
   1.054021,
   1.047414,
   1.042513,
   1.042664,
   1.044128,
   1.037018,
   1.033671,
   1.031497,
   1.022962,
   1.015458,
   1.020975,
   1.021036,
   1.013966,
   1.008259,
   1.009308,
   1.005198,
   1.003282,
   1.011062,
   1.012813,
   1.009363,
   1.001138,
   0.995758,
   0.995112,
   0.993655,
   0.985399,
   0.980309,
   0.971510,
   0.969788,
   0.971245,
   0.969932,
   0.961350,
   0.961391,
   0.964294,
   0.963931,
   0.964918,
   0.964163,
   0.959639,
   0.952994,
   0.944186,
   0.934322,
   0.935654,
   0.940013,
   0.940889,
   0.932962,
   0.925541,
   0.926619,
   0.922722,
   0.919115,
   0.918732,
   0.922994,
   0.927025,
   0.923747,
   0.920432,
   0.916399,
   0.912506,
   0.907463,
   0.901393,
   0.896856,
   0.896227,
   0.902244,
   0.899645,
   0.891126,
   0.883296,
   0.874814,
   0.875782,
   0.876350,
   0.868799,
   0.867793,
   0.871261,
   0.868453,
   0.866922,
   0.870531,
   0.874054,
   0.877312,
   0.873676,
   0.868309,
   0.863822,
   0.863795,
   0.860255,
   0.864186,
   0.861657,
   0.855994,
   0.849204,
   0.840569,
   0.823010,
   0.808472,
   0.809661,
   0.827730,
   0.830761,
   0.826676,
   0.826644,
   0.825769,
   0.821208,
   0.819709,
   0.819495,
   0.814234,
   0.807174,
   0.804822,
   0.804437,
   0.802840,
   0.804999,
   0.802897,
   0.799626,
   0.797863,
   0.797071,
   0.792456,
   0.794637,
   0.794601,
   0.791093,
   0.788428,
   0.785948,
   0.782421,
   0.781103,
   0.779333,
   0.778514,
   0.775160,
   0.776237,
   0.773777,
   0.771288,
   0.770566,
   0.768194,
   0.768426,
   0.763557,
   0.757481,
   0.755058,
   0.755177,
   0.754559,
   0.752717,
   0.748703,
   0.748352,
   0.749442,
   0.747081,
   0.745749,
   0.746761,
   0.744312,
   0.738706,
   0.732324,
   0.727165,
   0.721943,
   0.720105,
   0.725232,
   0.724474,
   0.728876,
   0.726868,
   0.722772,
   0.724229,
   0.730074,
   0.726416,
   0.719998,
   0.716323,
   0.713357,
   0.708544,
   0.704178,
   0.701025,
   0.700081,
   0.698933,
   0.698172,
   0.698888,
   0.701625,
   0.700791,
   0.694674,
   0.687126,
   0.676533,
   0.665254,
   0.674913,
   0.680504,
   0.680416,
   0.676011,
   0.673755,
   0.672402,
   0.669672,
   0.671742,
   0.675309,
   0.672874,
   0.671399,
   0.669285,
   0.662524,
   0.660750,
   0.665366,
   0.666667,
   0.664504,
   0.659935,
   0.660673,
   0.661222,
   0.657684,
   0.654948,
   0.655631,
   0.656793,
   0.654182,
   0.650239,
   0.648577,
   0.646361,
   0.648377,
   0.646862,
   0.647049,
   0.647712,
   0.641928,
   0.637801,
   0.633519,
   0.632811,
   0.633750,
   0.631497,
   0.626400,
   0.623332,
   0.623460,
   0.618315,
   0.613227,
   0.617240,
   0.618455,
   0.612423,
   0.604327,
   0.599741,
   0.593783,
   0.585786,
   0.577994,
   0.559423,
   0.530566,
   0.494820,
   0.445639,
   0.387141,
   0.383494,
   0.440645,
   0.490634,
   0.526743,
   0.550450,
   0.567959,
   0.576827,
   0.581570,
   0.582938,
   0.585495,
   0.589771,
   0.588803,
   0.590842,
   0.588545,
   0.586986,
   0.588796,
   0.587881,
   0.586622,
   0.583577,
   0.582297,
   0.577257,
   0.576840,
   0.574182,
   0.575010,
   0.577058,
   0.577292,
   0.576001,
   0.572869,
   0.572201,
   0.569137,
   0.565666,
   0.566061,
   0.567662,
   0.563994,
   0.562363,
   0.559562,
   0.559246,
   0.558876,
   0.557265,
   0.556734,
   0.555203,
   0.553600,
   0.552449,
   0.552745,
   0.550434,
   0.552717,
   0.553126,
   0.551552,
   0.551454,
   0.549133,
   0.548740,
   0.547746,
   0.544781,
   0.542914,
   0.541328,
   0.539912,
   0.540229,
   0.542038,
   0.543049,
   0.541932,
   0.539451,
   0.537691,
   0.537832,
   0.538934,
   0.538634,
   0.535100,
   0.528770,
   0.522335,
   0.518858,
   0.519544,
   0.522964,
   0.526103,
   0.526447,
   0.523623,
   0.519398,
   0.516242,
   0.515648,
   0.517246,
   0.519189,
   0.519594,
   0.517884,
   0.514923,
   0.512839,
   0.511897,
   0.512649,
   0.509168,
   0.508755,
   0.507389,
   0.504241,
   0.503905,
   0.501765,
   0.499839,
   0.497949,
   0.499422,
   0.498656,
   0.495765,
   0.496395,
   0.499189,
   0.499314,
   0.499049,
   0.498177,
   0.497152,
   0.494278,
   0.493516,
   0.493479,
   0.492319,
   0.491148,
   0.489862,
   0.486858,
   0.483619,
   0.481052,
   0.481716,
   0.484591,
   0.480840,
   0.481651,
   0.484793,
   0.481697,
   0.481246,
   0.486243,
   0.484457,
   0.479726,
   0.468617,
   0.460054,
   0.454525,
   0.445861,
   0.446275,
   0.445152,
   0.441943,
   0.440879,
   0.458005,
   0.469662,
   0.472794,
   0.468631,
   0.460114,
   0.450098,
   0.450005,
   0.445188,
   0.443737,
   0.443160,
   0.450329,
   0.453331,
   0.455126,
   0.445824,
   0.442898,
   0.448625,
   0.441254,
   0.442551,
   0.443547,
   0.444674,
   0.442466,
   0.442171,
   0.440274,
   0.440797,
   0.438235,
   0.440354,
   0.439209,
   0.437955,
   0.436961,
   0.436011,
   0.434783,
   0.434848,
   0.432394,
   0.432349,
   0.433036,
   0.433852,
   0.435932,
   0.433486,
   0.432015,
   0.428357,
   0.424120,
   0.426570,
   0.431545,
   0.428953,
   0.429413,
   0.427864,
   0.424417,
   0.420214,
   0.417546,
   0.415445,
   0.412012,
   0.411861,
   0.412201,
   0.415711,
   0.418427,
   0.419049,
   0.416838,
   0.412928,
   0.410493,
   0.408522,
   0.408693,
   0.410980,
   0.412988,
   0.412496,
   0.410266,
   0.407872,
   0.407964,
   0.408424,
   0.408889,
   0.407197,
   0.403182,
   0.398006,
   0.396316,
   0.399426,
   0.408053,
   0.416527,
   0.418298,
   0.410939,
   0.398171,
   0.387409,
   0.384712,
   0.390478,
   0.399103,
   0.403505,
   0.400258,
   0.391546,
   0.383008,
   0.379319,
   0.381010,
   0.385077,
   0.388140,
   0.388938,
   0.388478,
   0.388207,
   0.388128,
   0.386759,
   0.383143,
   0.378240,
   0.374644,
   0.374786,
   0.378761,
   0.384052,
   0.387307,
   0.379778,
   0.378008,
   0.375933,
   0.374159,
   0.374499,
   0.377602,
   0.379436,
   0.378094,
   0.373339,
   0.361561,
   0.354589,
   0.365470,
   0.372405,
   0.375396,
   0.377504,
   0.375441,
   0.372839,
   0.369793,
   0.366151,
   0.365266,
   0.363830,
   0.362176,
   0.362033,
   0.363228,
   0.364155,
   0.365373,
   0.366129,
   0.362388,
   0.360436,
   0.358388,
   0.356062,
   0.356824,
   0.356661,
   0.356413,
   0.352896,
   0.352643,
   0.353626,
   0.352244,
   0.348478,
   0.345822,
   0.344261,
   0.345080,
   0.346678,
   0.346685,
   0.343324,
   0.339639,
   0.336974,
   0.338300,
   0.343170,
   0.347311,
   0.349508,
   0.347939,
   0.345113,
   0.344387,
   0.344671,
   0.345366,
   0.345161,
   0.343594,
   0.339053,
   0.334836,
   0.333275,
   0.334551,
   0.337939,
   0.339747,
   0.339884,
   0.339712,
   0.338381,
   0.335804,
   0.333216,
   0.330914,
   0.329356,
   0.328766,
   0.328813,
   0.328124,
   0.327612,
   0.328865,
   0.327219,
   0.324668,
   0.322779,
   0.321983,
   0.321035,
   0.319348,
   0.315033,
   0.314800,
   0.311295,
   0.308496,
   0.306733,
   0.304132,
   0.300884,
   0.302679,
   0.305764,
   0.301219,
   0.302806,
   0.300273,
   0.299333,
   0.300343,
   0.304406,
   0.307521,
   0.306808,
   0.305509,
   0.300199,
   0.289992,
   0.294647,
   0.300845,
   0.300965,
   0.303298,
   0.301641,
   0.300903,
   0.301967,
   0.303442,
   0.298171,
   0.297393,
   0.297413,
   0.297336,
   0.297581,
   0.296521,
   0.296769,
   0.297919,
   0.297400,
   0.296959,
   0.294860,
   0.296591,
   0.295422,
   0.294681,
   0.296301,
   0.294597,
   0.295700,
   0.294467,
   0.294600,
   0.293966,
   0.293728,
   0.293804,
   0.293310,
   0.292417,
   0.291851,
   0.291566,
   0.290385,
   0.287584,
   0.288367,
   0.288147,
   0.289670,
   0.289839,
   0.289507,
   0.283611,
   0.276913,
   0.281159,
   0.285944,
   0.284416,
   0.282008,
   0.280488,
   0.284115,
   0.285680,
   0.286778,
   0.285189,
   0.274475,
   0.270005,
   0.273692,
   0.279309,
   0.283168,
   0.285962,
   0.285925,
   0.282583,
   0.273948,
   0.258127,
   0.253735,
   0.265971,
   0.275018,
   0.283288,
   0.285008,
   0.286087,
   0.284799,
   0.280766,
   0.274829,
   0.264067,
   0.252793,
   0.250306,
   0.259279,
   0.271181,
   0.279498,
   0.284287,
   0.287573,
   0.286856,
   0.286338,
   0.281676,
   0.277804,
   0.269458,
   0.256682,
   0.237084,
   0.228316,
   0.239257,
   0.254298,
   0.262843,
   0.270235,
   0.277516,
   0.282539,
   0.284073,
   0.284174,
   0.277839,
   0.283596,
   0.280767,
   0.275808,
   0.269673,
   0.259512,
   0.246847,
   0.229009,
   0.218496,
   0.226373,
   0.243132,
   0.257532,
   0.266325,
   0.273084,
   0.279191,
   0.274604,
   0.274939,
   0.275659,
   0.277358,
   0.275689,
   0.283718,
   0.276312,
   0.275647,
   0.281248,
   0.277759,
   0.271701,
   0.263536,
   0.247639,
   0.241965,
   0.223806,
   0.206907,
   0.205490,
   0.222924,
   0.238259,
   0.249270,
   0.261231,
   0.267794,
   0.265412,
   0.267435,
   0.271045,
   0.271142,
   0.273528,
   0.280429,
   0.272948,
   0.280552,
   0.280161,
   0.280712,
   0.277902,
   0.273739,
   0.269398,
   0.265160,
   0.258277,
   0.249648,
   0.245873,
   0.241439,
   0.234129,
   0.223623,
   0.221977,
   0.220272,
   0.214390,
   0.209945,
   0.207717,
   0.211450,
   0.223343,
   0.234445,
   0.245005,
   0.252999,
   0.257445,
   0.262840,
   0.262899,
   0.262518,
   0.259665,
   0.257987,
   0.255984,
   0.254676,
   0.253862,
   0.251839,
   0.253264,
   0.257221,
   0.257053,
   0.261065,
   0.264041,
   0.261180,
   0.263225,
   0.257342,
   0.252475,
   0.251696,
   0.253235,
   0.250387,
   0.242576,
   0.245816,
   0.250651,
   0.253140,
   0.247046,
   0.248596,
   0.247441,
   0.240678,
   0.234690,
   0.229126,
   0.224443,
   0.215025,
   0.207318,
   0.201475,
   0.194374,
   0.190973,
   0.196350,
   0.204166,
   0.211056,
   0.219031,
   0.225638,
   0.228475,
   0.234508,
   0.244772,
   0.249925,
   0.248717,
   0.249623,
   0.248748,
   0.243251,
   0.236909,
   0.232304,
   0.227318,
   0.221010,
   0.216820,
   0.216727,
   0.221338,
   0.220802,
   0.219328,
   0.213393,
   0.227356,
   0.222999,
   0.224611,
   0.234577,
   0.227680,
   0.235085,
   0.234429,
   0.238730,
   0.249480,
   0.254038,
   0.248912,
   0.242781,
   0.238835,
   0.232737,
   0.228388,
   0.222760,
   0.210919,
   0.218602,
   0.207870,
   0.211790,
   0.225157,
   0.221661,
   0.217307,
   0.221820,
   0.223775,
   0.221596,
   0.214485,
   0.212963,
   0.218806,
   0.214117,
   0.204990,
   0.205921,
   0.210033,
   0.205195,
   0.188097,
   0.180081,
   0.177512,
   0.179283,
   0.172703,
   0.164942,
   0.168364,
   0.175767,
   0.179106,
   0.190175,
   0.196482,
   0.205022,
   0.209433,
   0.209440,
   0.210170,
   0.203540,
   0.213078,
   0.211576,
   0.211642,
   0.212166,
   0.207939,
   0.208837,
   0.212405,
   0.213805,
   0.213752,
   0.212120,
   0.214383,
   0.214960,
   0.210843,
   0.210143,
   0.211318,
   0.216211,
   0.212783,
   0.215762,
   0.214026,
   0.211890,
   0.210853,
   0.209639,
   0.211730,
   0.213149,
   0.210439,
   0.207201,
   0.202945,
   0.204475,
   0.203321,
   0.205230,
   0.205230,
   0.209753,
   0.211071,
   0.207982,
   0.211290,
   0.211490,
   0.207655,
   0.208044,
   0.205890,
   0.206898,
   0.208006,
   0.212538,
   0.211901,
   0.206509,
   0.206125,
   0.205469,
   0.208315,
   0.202143,
   0.209274,
   0.210149,
   0.206650,
   0.204388,
   0.203980,
   0.203672,
   0.207104,
   0.207786,
   0.203337,
   0.200196,
   0.199245,
   0.198569,
   0.199893,
   0.193942,
   0.194480,
   0.199013,
   0.196895,
   0.199583,
   0.200535,
   0.199916,
   0.199683,
   0.192748,
   0.188488,
   0.185139,
   0.188144,
   0.184994,
   0.187610,
   0.189416,
   0.186516,
   0.191154,
   0.182692,
   0.182245,
   0.178647,
   0.177320,
   0.170040,
   0.166144,
   0.159202,
   0.161064,
   0.154773,
   0.155553,
   0.148779,
   0.144590,
   0.145691,
   0.153829,
   0.150342,
   0.157244,
   0.164504,
   0.168632,
   0.169710,
   0.171018,
   0.175074,
   0.174140,
   0.176636,
   0.181357,
   0.180568,
   0.179481,
   0.179657,
   0.176616,
   0.180016,
   0.174641,
   0.177958,
   0.178730,
   0.179911,
   0.180808,
   0.180727,
   0.179230,
   0.176907,
   0.174602,
   0.173160,
   0.173180,
   0.174281,
   0.175837,
   0.177221,
   0.177931,
   0.177964,
   0.177442,
   0.176487,
   0.175265,
   0.174121,
   0.173444,
   0.173625,
   0.174867,
   0.176621,
   0.178155,
   0.178735,
   0.177859,
   0.175955,
   0.173681,
   0.171697,
   0.170493,
   0.169885,
   0.169519,
   0.169042,
   0.168212,
   0.167231,
   0.166412,
   0.166069,
   0.166370,
   0.166911,
   0.167142,
   0.166515,
   0.164721,
   0.162409,
   0.160470,
   0.159793,
   0.160927,
   0.163048,
   0.164994,
   0.165600,
   0.164079,
   0.161150,
   0.157909,
   0.155452,
   0.154595,
   0.155038,
   0.156204,
   0.157513,
   0.158480,
   0.158998,
   0.159052,
   0.158627,
   0.157762,
   0.156711,
   0.155778,
   0.155270,
   0.155384,
   0.155878,
   0.156402,
   0.156605,
   0.156243,
   0.155495,
   0.154643,
   0.153973,
   0.153717,
   0.153904,
   0.154510,
   0.155515,
   0.156810,
   0.157955,
   0.158425,
   0.157696,
   0.155502,
   0.152622,
   0.150092,
   0.148949,
   0.149875,
   0.152129,
   0.154617,
   0.156242,
   0.156194,
   0.154814,
   0.152726,
   0.150557,
   0.148805,
   0.147460,
   0.146387,
   0.145451
};

#endif
