#ifndef _A3V_H_
#define _A3V_H_

/* spectrum for a3v star           */
/* number of elements = 1895       */

static double _a3v_lambda[] = {
   1150.000000,
   1155.000000,
   1160.000000,
   1165.000000,
   1170.000000,
   1175.000000,
   1180.000000,
   1185.000000,
   1190.000000,
   1195.000000,
   1200.000000,
   1205.000000,
   1210.000000,
   1215.000000,
   1220.000000,
   1225.000000,
   1230.000000,
   1235.000000,
   1240.000000,
   1245.000000,
   1250.000000,
   1255.000000,
   1260.000000,
   1265.000000,
   1270.000000,
   1275.000000,
   1280.000000,
   1285.000000,
   1290.000000,
   1295.000000,
   1300.000000,
   1305.000000,
   1310.000000,
   1315.000000,
   1320.000000,
   1325.000000,
   1330.000000,
   1335.000000,
   1340.000000,
   1345.000000,
   1350.000000,
   1355.000000,
   1360.000000,
   1365.000000,
   1370.000000,
   1375.000000,
   1380.000000,
   1385.000000,
   1390.000000,
   1395.000000,
   1400.000000,
   1405.000000,
   1410.000000,
   1415.000000,
   1420.000000,
   1425.000000,
   1430.000000,
   1435.000000,
   1440.000000,
   1445.000000,
   1450.000000,
   1455.000000,
   1460.000000,
   1465.000000,
   1470.000000,
   1475.000000,
   1480.000000,
   1485.000000,
   1490.000000,
   1495.000000,
   1500.000000,
   1505.000000,
   1510.000000,
   1515.000000,
   1520.000000,
   1525.000000,
   1530.000000,
   1535.000000,
   1540.000000,
   1545.000000,
   1550.000000,
   1555.000000,
   1560.000000,
   1565.000000,
   1570.000000,
   1575.000000,
   1580.000000,
   1585.000000,
   1590.000000,
   1595.000000,
   1600.000000,
   1605.000000,
   1610.000000,
   1615.000000,
   1620.000000,
   1625.000000,
   1630.000000,
   1635.000000,
   1640.000000,
   1645.000000,
   1650.000000,
   1655.000000,
   1660.000000,
   1665.000000,
   1670.000000,
   1675.000000,
   1680.000000,
   1685.000000,
   1690.000000,
   1695.000000,
   1700.000000,
   1705.000000,
   1710.000000,
   1715.000000,
   1720.000000,
   1725.000000,
   1730.000000,
   1735.000000,
   1740.000000,
   1745.000000,
   1750.000000,
   1755.000000,
   1760.000000,
   1765.000000,
   1770.000000,
   1775.000000,
   1780.000000,
   1785.000000,
   1790.000000,
   1795.000000,
   1800.000000,
   1805.000000,
   1810.000000,
   1815.000000,
   1820.000000,
   1825.000000,
   1830.000000,
   1835.000000,
   1840.000000,
   1845.000000,
   1850.000000,
   1855.000000,
   1860.000000,
   1865.000000,
   1870.000000,
   1875.000000,
   1880.000000,
   1885.000000,
   1890.000000,
   1895.000000,
   1900.000000,
   1905.000000,
   1910.000000,
   1915.000000,
   1920.000000,
   1925.000000,
   1930.000000,
   1935.000000,
   1940.000000,
   1945.000000,
   1950.000000,
   1955.000000,
   1960.000000,
   1965.000000,
   1970.000000,
   1975.000000,
   1980.000000,
   1985.000000,
   1990.000000,
   1995.000000,
   2000.000000,
   2005.000000,
   2010.000000,
   2015.000000,
   2020.000000,
   2025.000000,
   2030.000000,
   2035.000000,
   2040.000000,
   2045.000000,
   2050.000000,
   2055.000000,
   2060.000000,
   2065.000000,
   2070.000000,
   2075.000000,
   2080.000000,
   2085.000000,
   2090.000000,
   2095.000000,
   2100.000000,
   2105.000000,
   2110.000000,
   2115.000000,
   2120.000000,
   2125.000000,
   2130.000000,
   2135.000000,
   2140.000000,
   2145.000000,
   2150.000000,
   2155.000000,
   2160.000000,
   2165.000000,
   2170.000000,
   2175.000000,
   2180.000000,
   2185.000000,
   2190.000000,
   2195.000000,
   2200.000000,
   2205.000000,
   2210.000000,
   2215.000000,
   2220.000000,
   2225.000000,
   2230.000000,
   2235.000000,
   2240.000000,
   2245.000000,
   2250.000000,
   2255.000000,
   2260.000000,
   2265.000000,
   2270.000000,
   2275.000000,
   2280.000000,
   2285.000000,
   2290.000000,
   2295.000000,
   2300.000000,
   2305.000000,
   2310.000000,
   2315.000000,
   2320.000000,
   2325.000000,
   2330.000000,
   2335.000000,
   2340.000000,
   2345.000000,
   2350.000000,
   2355.000000,
   2360.000000,
   2365.000000,
   2370.000000,
   2375.000000,
   2380.000000,
   2385.000000,
   2390.000000,
   2395.000000,
   2400.000000,
   2405.000000,
   2410.000000,
   2415.000000,
   2420.000000,
   2425.000000,
   2430.000000,
   2435.000000,
   2440.000000,
   2445.000000,
   2450.000000,
   2455.000000,
   2460.000000,
   2465.000000,
   2470.000000,
   2475.000000,
   2480.000000,
   2485.000000,
   2490.000000,
   2495.000000,
   2500.000000,
   2505.000000,
   2510.000000,
   2515.000000,
   2520.000000,
   2525.000000,
   2530.000000,
   2535.000000,
   2540.000000,
   2545.000000,
   2550.000000,
   2555.000000,
   2560.000000,
   2565.000000,
   2570.000000,
   2575.000000,
   2580.000000,
   2585.000000,
   2590.000000,
   2595.000000,
   2600.000000,
   2605.000000,
   2610.000000,
   2615.000000,
   2620.000000,
   2625.000000,
   2630.000000,
   2635.000000,
   2640.000000,
   2645.000000,
   2650.000000,
   2655.000000,
   2660.000000,
   2665.000000,
   2670.000000,
   2675.000000,
   2680.000000,
   2685.000000,
   2690.000000,
   2695.000000,
   2700.000000,
   2705.000000,
   2710.000000,
   2715.000000,
   2720.000000,
   2725.000000,
   2730.000000,
   2735.000000,
   2740.000000,
   2745.000000,
   2750.000000,
   2755.000000,
   2760.000000,
   2765.000000,
   2770.000000,
   2775.000000,
   2780.000000,
   2785.000000,
   2790.000000,
   2795.000000,
   2800.000000,
   2805.000000,
   2810.000000,
   2815.000000,
   2820.000000,
   2825.000000,
   2830.000000,
   2835.000000,
   2840.000000,
   2845.000000,
   2850.000000,
   2855.000000,
   2860.000000,
   2865.000000,
   2870.000000,
   2875.000000,
   2880.000000,
   2885.000000,
   2890.000000,
   2895.000000,
   2900.000000,
   2905.000000,
   2910.000000,
   2915.000000,
   2920.000000,
   2925.000000,
   2930.000000,
   2935.000000,
   2940.000000,
   2945.000000,
   2950.000000,
   2955.000000,
   2960.000000,
   2965.000000,
   2970.000000,
   2975.000000,
   2980.000000,
   2985.000000,
   2990.000000,
   2995.000000,
   3000.000000,
   3005.000000,
   3010.000000,
   3015.000000,
   3020.000000,
   3025.000000,
   3030.000000,
   3035.000000,
   3040.000000,
   3045.000000,
   3050.000000,
   3055.000000,
   3060.000000,
   3065.000000,
   3070.000000,
   3075.000000,
   3080.000000,
   3085.000000,
   3090.000000,
   3095.000000,
   3100.000000,
   3105.000000,
   3110.000000,
   3115.000000,
   3120.000000,
   3125.000000,
   3130.000000,
   3135.000000,
   3140.000000,
   3145.000000,
   3150.000000,
   3155.000000,
   3160.000000,
   3165.000000,
   3170.000000,
   3175.000000,
   3180.000000,
   3185.000000,
   3190.000000,
   3195.000000,
   3200.000000,
   3205.000000,
   3210.000000,
   3215.000000,
   3220.000000,
   3225.000000,
   3230.000000,
   3235.000000,
   3240.000000,
   3245.000000,
   3250.000000,
   3255.000000,
   3260.000000,
   3265.000000,
   3270.000000,
   3275.000000,
   3280.000000,
   3285.000000,
   3290.000000,
   3295.000000,
   3300.000000,
   3305.000000,
   3310.000000,
   3315.000000,
   3320.000000,
   3325.000000,
   3330.000000,
   3335.000000,
   3340.000000,
   3345.000000,
   3350.000000,
   3355.000000,
   3360.000000,
   3365.000000,
   3370.000000,
   3375.000000,
   3380.000000,
   3385.000000,
   3390.000000,
   3395.000000,
   3400.000000,
   3405.000000,
   3410.000000,
   3415.000000,
   3420.000000,
   3425.000000,
   3430.000000,
   3435.000000,
   3440.000000,
   3445.000000,
   3450.000000,
   3455.000000,
   3460.000000,
   3465.000000,
   3470.000000,
   3475.000000,
   3480.000000,
   3485.000000,
   3490.000000,
   3495.000000,
   3500.000000,
   3505.000000,
   3510.000000,
   3515.000000,
   3520.000000,
   3525.000000,
   3530.000000,
   3535.000000,
   3540.000000,
   3545.000000,
   3550.000000,
   3555.000000,
   3560.000000,
   3565.000000,
   3570.000000,
   3575.000000,
   3580.000000,
   3585.000000,
   3590.000000,
   3595.000000,
   3600.000000,
   3605.000000,
   3610.000000,
   3615.000000,
   3620.000000,
   3625.000000,
   3630.000000,
   3635.000000,
   3640.000000,
   3645.000000,
   3650.000000,
   3655.000000,
   3660.000000,
   3665.000000,
   3670.000000,
   3675.000000,
   3680.000000,
   3685.000000,
   3690.000000,
   3695.000000,
   3700.000000,
   3705.000000,
   3710.000000,
   3715.000000,
   3720.000000,
   3725.000000,
   3730.000000,
   3735.000000,
   3740.000000,
   3745.000000,
   3750.000000,
   3755.000000,
   3760.000000,
   3765.000000,
   3770.000000,
   3775.000000,
   3780.000000,
   3785.000000,
   3790.000000,
   3795.000000,
   3800.000000,
   3805.000000,
   3810.000000,
   3815.000000,
   3820.000000,
   3825.000000,
   3830.000000,
   3835.000000,
   3840.000000,
   3845.000000,
   3850.000000,
   3855.000000,
   3860.000000,
   3865.000000,
   3870.000000,
   3875.000000,
   3880.000000,
   3885.000000,
   3890.000000,
   3895.000000,
   3900.000000,
   3905.000000,
   3910.000000,
   3915.000000,
   3920.000000,
   3925.000000,
   3930.000000,
   3935.000000,
   3940.000000,
   3945.000000,
   3950.000000,
   3955.000000,
   3960.000000,
   3965.000000,
   3970.000000,
   3975.000000,
   3980.000000,
   3985.000000,
   3990.000000,
   3995.000000,
   4000.000000,
   4005.000000,
   4010.000000,
   4015.000000,
   4020.000000,
   4025.000000,
   4030.000000,
   4035.000000,
   4040.000000,
   4045.000000,
   4050.000000,
   4055.000000,
   4060.000000,
   4065.000000,
   4070.000000,
   4075.000000,
   4080.000000,
   4085.000000,
   4090.000000,
   4095.000000,
   4100.000000,
   4105.000000,
   4110.000000,
   4115.000000,
   4120.000000,
   4125.000000,
   4130.000000,
   4135.000000,
   4140.000000,
   4145.000000,
   4150.000000,
   4155.000000,
   4160.000000,
   4165.000000,
   4170.000000,
   4175.000000,
   4180.000000,
   4185.000000,
   4190.000000,
   4195.000000,
   4200.000000,
   4205.000000,
   4210.000000,
   4215.000000,
   4220.000000,
   4225.000000,
   4230.000000,
   4235.000000,
   4240.000000,
   4245.000000,
   4250.000000,
   4255.000000,
   4260.000000,
   4265.000000,
   4270.000000,
   4275.000000,
   4280.000000,
   4285.000000,
   4290.000000,
   4295.000000,
   4300.000000,
   4305.000000,
   4310.000000,
   4315.000000,
   4320.000000,
   4325.000000,
   4330.000000,
   4335.000000,
   4340.000000,
   4345.000000,
   4350.000000,
   4355.000000,
   4360.000000,
   4365.000000,
   4370.000000,
   4375.000000,
   4380.000000,
   4385.000000,
   4390.000000,
   4395.000000,
   4400.000000,
   4405.000000,
   4410.000000,
   4415.000000,
   4420.000000,
   4425.000000,
   4430.000000,
   4435.000000,
   4440.000000,
   4445.000000,
   4450.000000,
   4455.000000,
   4460.000000,
   4465.000000,
   4470.000000,
   4475.000000,
   4480.000000,
   4485.000000,
   4490.000000,
   4495.000000,
   4500.000000,
   4505.000000,
   4510.000000,
   4515.000000,
   4520.000000,
   4525.000000,
   4530.000000,
   4535.000000,
   4540.000000,
   4545.000000,
   4550.000000,
   4555.000000,
   4560.000000,
   4565.000000,
   4570.000000,
   4575.000000,
   4580.000000,
   4585.000000,
   4590.000000,
   4595.000000,
   4600.000000,
   4605.000000,
   4610.000000,
   4615.000000,
   4620.000000,
   4625.000000,
   4630.000000,
   4635.000000,
   4640.000000,
   4645.000000,
   4650.000000,
   4655.000000,
   4660.000000,
   4665.000000,
   4670.000000,
   4675.000000,
   4680.000000,
   4685.000000,
   4690.000000,
   4695.000000,
   4700.000000,
   4705.000000,
   4710.000000,
   4715.000000,
   4720.000000,
   4725.000000,
   4730.000000,
   4735.000000,
   4740.000000,
   4745.000000,
   4750.000000,
   4755.000000,
   4760.000000,
   4765.000000,
   4770.000000,
   4775.000000,
   4780.000000,
   4785.000000,
   4790.000000,
   4795.000000,
   4800.000000,
   4805.000000,
   4810.000000,
   4815.000000,
   4820.000000,
   4825.000000,
   4830.000000,
   4835.000000,
   4840.000000,
   4845.000000,
   4850.000000,
   4855.000000,
   4860.000000,
   4865.000000,
   4870.000000,
   4875.000000,
   4880.000000,
   4885.000000,
   4890.000000,
   4895.000000,
   4900.000000,
   4905.000000,
   4910.000000,
   4915.000000,
   4920.000000,
   4925.000000,
   4930.000000,
   4935.000000,
   4940.000000,
   4945.000000,
   4950.000000,
   4955.000000,
   4960.000000,
   4965.000000,
   4970.000000,
   4975.000000,
   4980.000000,
   4985.000000,
   4990.000000,
   4995.000000,
   5000.000000,
   5005.000000,
   5010.000000,
   5015.000000,
   5020.000000,
   5025.000000,
   5030.000000,
   5035.000000,
   5040.000000,
   5045.000000,
   5050.000000,
   5055.000000,
   5060.000000,
   5065.000000,
   5070.000000,
   5075.000000,
   5080.000000,
   5085.000000,
   5090.000000,
   5095.000000,
   5100.000000,
   5105.000000,
   5110.000000,
   5115.000000,
   5120.000000,
   5125.000000,
   5130.000000,
   5135.000000,
   5140.000000,
   5145.000000,
   5150.000000,
   5155.000000,
   5160.000000,
   5165.000000,
   5170.000000,
   5175.000000,
   5180.000000,
   5185.000000,
   5190.000000,
   5195.000000,
   5200.000000,
   5205.000000,
   5210.000000,
   5215.000000,
   5220.000000,
   5225.000000,
   5230.000000,
   5235.000000,
   5240.000000,
   5245.000000,
   5250.000000,
   5255.000000,
   5260.000000,
   5265.000000,
   5270.000000,
   5275.000000,
   5280.000000,
   5285.000000,
   5290.000000,
   5295.000000,
   5300.000000,
   5305.000000,
   5310.000000,
   5315.000000,
   5320.000000,
   5325.000000,
   5330.000000,
   5335.000000,
   5340.000000,
   5345.000000,
   5350.000000,
   5355.000000,
   5360.000000,
   5365.000000,
   5370.000000,
   5375.000000,
   5380.000000,
   5385.000000,
   5390.000000,
   5395.000000,
   5400.000000,
   5405.000000,
   5410.000000,
   5415.000000,
   5420.000000,
   5425.000000,
   5430.000000,
   5435.000000,
   5440.000000,
   5445.000000,
   5450.000000,
   5455.000000,
   5460.000000,
   5465.000000,
   5470.000000,
   5475.000000,
   5480.000000,
   5485.000000,
   5490.000000,
   5495.000000,
   5500.000000,
   5505.000000,
   5510.000000,
   5515.000000,
   5520.000000,
   5525.000000,
   5530.000000,
   5535.000000,
   5540.000000,
   5545.000000,
   5550.000000,
   5555.000000,
   5560.000000,
   5565.000000,
   5570.000000,
   5575.000000,
   5580.000000,
   5585.000000,
   5590.000000,
   5595.000000,
   5600.000000,
   5605.000000,
   5610.000000,
   5615.000000,
   5620.000000,
   5625.000000,
   5630.000000,
   5635.000000,
   5640.000000,
   5645.000000,
   5650.000000,
   5655.000000,
   5660.000000,
   5665.000000,
   5670.000000,
   5675.000000,
   5680.000000,
   5685.000000,
   5690.000000,
   5695.000000,
   5700.000000,
   5705.000000,
   5710.000000,
   5715.000000,
   5720.000000,
   5725.000000,
   5730.000000,
   5735.000000,
   5740.000000,
   5745.000000,
   5750.000000,
   5755.000000,
   5760.000000,
   5765.000000,
   5770.000000,
   5775.000000,
   5780.000000,
   5785.000000,
   5790.000000,
   5795.000000,
   5800.000000,
   5805.000000,
   5810.000000,
   5815.000000,
   5820.000000,
   5825.000000,
   5830.000000,
   5835.000000,
   5840.000000,
   5845.000000,
   5850.000000,
   5855.000000,
   5860.000000,
   5865.000000,
   5870.000000,
   5875.000000,
   5880.000000,
   5885.000000,
   5890.000000,
   5895.000000,
   5900.000000,
   5905.000000,
   5910.000000,
   5915.000000,
   5920.000000,
   5925.000000,
   5930.000000,
   5935.000000,
   5940.000000,
   5945.000000,
   5950.000000,
   5955.000000,
   5960.000000,
   5965.000000,
   5970.000000,
   5975.000000,
   5980.000000,
   5985.000000,
   5990.000000,
   5995.000000,
   6000.000000,
   6005.000000,
   6010.000000,
   6015.000000,
   6020.000000,
   6025.000000,
   6030.000000,
   6035.000000,
   6040.000000,
   6045.000000,
   6050.000000,
   6055.000000,
   6060.000000,
   6065.000000,
   6070.000000,
   6075.000000,
   6080.000000,
   6085.000000,
   6090.000000,
   6095.000000,
   6100.000000,
   6105.000000,
   6110.000000,
   6115.000000,
   6120.000000,
   6125.000000,
   6130.000000,
   6135.000000,
   6140.000000,
   6145.000000,
   6150.000000,
   6155.000000,
   6160.000000,
   6165.000000,
   6170.000000,
   6175.000000,
   6180.000000,
   6185.000000,
   6190.000000,
   6195.000000,
   6200.000000,
   6205.000000,
   6210.000000,
   6215.000000,
   6220.000000,
   6225.000000,
   6230.000000,
   6235.000000,
   6240.000000,
   6245.000000,
   6250.000000,
   6255.000000,
   6260.000000,
   6265.000000,
   6270.000000,
   6275.000000,
   6280.000000,
   6285.000000,
   6290.000000,
   6295.000000,
   6300.000000,
   6305.000000,
   6310.000000,
   6315.000000,
   6320.000000,
   6325.000000,
   6330.000000,
   6335.000000,
   6340.000000,
   6345.000000,
   6350.000000,
   6355.000000,
   6360.000000,
   6365.000000,
   6370.000000,
   6375.000000,
   6380.000000,
   6385.000000,
   6390.000000,
   6395.000000,
   6400.000000,
   6405.000000,
   6410.000000,
   6415.000000,
   6420.000000,
   6425.000000,
   6430.000000,
   6435.000000,
   6440.000000,
   6445.000000,
   6450.000000,
   6455.000000,
   6460.000000,
   6465.000000,
   6470.000000,
   6475.000000,
   6480.000000,
   6485.000000,
   6490.000000,
   6495.000000,
   6500.000000,
   6505.000000,
   6510.000000,
   6515.000000,
   6520.000000,
   6525.000000,
   6530.000000,
   6535.000000,
   6540.000000,
   6545.000000,
   6550.000000,
   6555.000000,
   6560.000000,
   6565.000000,
   6570.000000,
   6575.000000,
   6580.000000,
   6585.000000,
   6590.000000,
   6595.000000,
   6600.000000,
   6605.000000,
   6610.000000,
   6615.000000,
   6620.000000,
   6625.000000,
   6630.000000,
   6635.000000,
   6640.000000,
   6645.000000,
   6650.000000,
   6655.000000,
   6660.000000,
   6665.000000,
   6670.000000,
   6675.000000,
   6680.000000,
   6685.000000,
   6690.000000,
   6695.000000,
   6700.000000,
   6705.000000,
   6710.000000,
   6715.000000,
   6720.000000,
   6725.000000,
   6730.000000,
   6735.000000,
   6740.000000,
   6745.000000,
   6750.000000,
   6755.000000,
   6760.000000,
   6765.000000,
   6770.000000,
   6775.000000,
   6780.000000,
   6785.000000,
   6790.000000,
   6795.000000,
   6800.000000,
   6805.000000,
   6810.000000,
   6815.000000,
   6820.000000,
   6825.000000,
   6830.000000,
   6835.000000,
   6840.000000,
   6845.000000,
   6850.000000,
   6855.000000,
   6860.000000,
   6865.000000,
   6870.000000,
   6875.000000,
   6880.000000,
   6885.000000,
   6890.000000,
   6895.000000,
   6900.000000,
   6905.000000,
   6910.000000,
   6915.000000,
   6920.000000,
   6925.000000,
   6930.000000,
   6935.000000,
   6940.000000,
   6945.000000,
   6950.000000,
   6955.000000,
   6960.000000,
   6965.000000,
   6970.000000,
   6975.000000,
   6980.000000,
   6985.000000,
   6990.000000,
   6995.000000,
   7000.000000,
   7005.000000,
   7010.000000,
   7015.000000,
   7020.000000,
   7025.000000,
   7030.000000,
   7035.000000,
   7040.000000,
   7045.000000,
   7050.000000,
   7055.000000,
   7060.000000,
   7065.000000,
   7070.000000,
   7075.000000,
   7080.000000,
   7085.000000,
   7090.000000,
   7095.000000,
   7100.000000,
   7105.000000,
   7110.000000,
   7115.000000,
   7120.000000,
   7125.000000,
   7130.000000,
   7135.000000,
   7140.000000,
   7145.000000,
   7150.000000,
   7155.000000,
   7160.000000,
   7165.000000,
   7170.000000,
   7175.000000,
   7180.000000,
   7185.000000,
   7190.000000,
   7195.000000,
   7200.000000,
   7205.000000,
   7210.000000,
   7215.000000,
   7220.000000,
   7225.000000,
   7230.000000,
   7235.000000,
   7240.000000,
   7245.000000,
   7250.000000,
   7255.000000,
   7260.000000,
   7265.000000,
   7270.000000,
   7275.000000,
   7280.000000,
   7285.000000,
   7290.000000,
   7295.000000,
   7300.000000,
   7305.000000,
   7310.000000,
   7315.000000,
   7320.000000,
   7325.000000,
   7330.000000,
   7335.000000,
   7340.000000,
   7345.000000,
   7350.000000,
   7355.000000,
   7360.000000,
   7365.000000,
   7370.000000,
   7375.000000,
   7380.000000,
   7385.000000,
   7390.000000,
   7395.000000,
   7400.000000,
   7405.000000,
   7410.000000,
   7415.000000,
   7420.000000,
   7425.000000,
   7430.000000,
   7435.000000,
   7440.000000,
   7445.000000,
   7450.000000,
   7455.000000,
   7460.000000,
   7465.000000,
   7470.000000,
   7475.000000,
   7480.000000,
   7485.000000,
   7490.000000,
   7495.000000,
   7500.000000,
   7505.000000,
   7510.000000,
   7515.000000,
   7520.000000,
   7525.000000,
   7530.000000,
   7535.000000,
   7540.000000,
   7545.000000,
   7550.000000,
   7555.000000,
   7560.000000,
   7565.000000,
   7570.000000,
   7575.000000,
   7580.000000,
   7585.000000,
   7590.000000,
   7595.000000,
   7600.000000,
   7605.000000,
   7610.000000,
   7615.000000,
   7620.000000,
   7625.000000,
   7630.000000,
   7635.000000,
   7640.000000,
   7645.000000,
   7650.000000,
   7655.000000,
   7660.000000,
   7665.000000,
   7670.000000,
   7675.000000,
   7680.000000,
   7685.000000,
   7690.000000,
   7695.000000,
   7700.000000,
   7705.000000,
   7710.000000,
   7715.000000,
   7720.000000,
   7725.000000,
   7730.000000,
   7735.000000,
   7740.000000,
   7745.000000,
   7750.000000,
   7755.000000,
   7760.000000,
   7765.000000,
   7770.000000,
   7775.000000,
   7780.000000,
   7785.000000,
   7790.000000,
   7795.000000,
   7800.000000,
   7805.000000,
   7810.000000,
   7815.000000,
   7820.000000,
   7825.000000,
   7830.000000,
   7835.000000,
   7840.000000,
   7845.000000,
   7850.000000,
   7855.000000,
   7860.000000,
   7865.000000,
   7870.000000,
   7875.000000,
   7880.000000,
   7885.000000,
   7890.000000,
   7895.000000,
   7900.000000,
   7905.000000,
   7910.000000,
   7915.000000,
   7920.000000,
   7925.000000,
   7930.000000,
   7935.000000,
   7940.000000,
   7945.000000,
   7950.000000,
   7955.000000,
   7960.000000,
   7965.000000,
   7970.000000,
   7975.000000,
   7980.000000,
   7985.000000,
   7990.000000,
   7995.000000,
   8000.000000,
   8005.000000,
   8010.000000,
   8015.000000,
   8020.000000,
   8025.000000,
   8030.000000,
   8035.000000,
   8040.000000,
   8045.000000,
   8050.000000,
   8055.000000,
   8060.000000,
   8065.000000,
   8070.000000,
   8075.000000,
   8080.000000,
   8085.000000,
   8090.000000,
   8095.000000,
   8100.000000,
   8105.000000,
   8110.000000,
   8115.000000,
   8120.000000,
   8125.000000,
   8130.000000,
   8135.000000,
   8140.000000,
   8145.000000,
   8150.000000,
   8155.000000,
   8160.000000,
   8165.000000,
   8170.000000,
   8175.000000,
   8180.000000,
   8185.000000,
   8190.000000,
   8195.000000,
   8200.000000,
   8205.000000,
   8210.000000,
   8215.000000,
   8220.000000,
   8225.000000,
   8230.000000,
   8235.000000,
   8240.000000,
   8245.000000,
   8250.000000,
   8255.000000,
   8260.000000,
   8265.000000,
   8270.000000,
   8275.000000,
   8280.000000,
   8285.000000,
   8290.000000,
   8295.000000,
   8300.000000,
   8305.000000,
   8310.000000,
   8315.000000,
   8320.000000,
   8325.000000,
   8330.000000,
   8335.000000,
   8340.000000,
   8345.000000,
   8350.000000,
   8355.000000,
   8360.000000,
   8365.000000,
   8370.000000,
   8375.000000,
   8380.000000,
   8385.000000,
   8390.000000,
   8395.000000,
   8400.000000,
   8405.000000,
   8410.000000,
   8415.000000,
   8420.000000,
   8425.000000,
   8430.000000,
   8435.000000,
   8440.000000,
   8445.000000,
   8450.000000,
   8455.000000,
   8460.000000,
   8465.000000,
   8470.000000,
   8475.000000,
   8480.000000,
   8485.000000,
   8490.000000,
   8495.000000,
   8500.000000,
   8505.000000,
   8510.000000,
   8515.000000,
   8520.000000,
   8525.000000,
   8530.000000,
   8535.000000,
   8540.000000,
   8545.000000,
   8550.000000,
   8555.000000,
   8560.000000,
   8565.000000,
   8570.000000,
   8575.000000,
   8580.000000,
   8585.000000,
   8590.000000,
   8595.000000,
   8600.000000,
   8605.000000,
   8610.000000,
   8615.000000,
   8620.000000,
   8625.000000,
   8630.000000,
   8635.000000,
   8640.000000,
   8645.000000,
   8650.000000,
   8655.000000,
   8660.000000,
   8665.000000,
   8670.000000,
   8675.000000,
   8680.000000,
   8685.000000,
   8690.000000,
   8695.000000,
   8700.000000,
   8705.000000,
   8710.000000,
   8715.000000,
   8720.000000,
   8725.000000,
   8730.000000,
   8735.000000,
   8740.000000,
   8745.000000,
   8750.000000,
   8755.000000,
   8760.000000,
   8765.000000,
   8770.000000,
   8775.000000,
   8780.000000,
   8785.000000,
   8790.000000,
   8795.000000,
   8800.000000,
   8805.000000,
   8810.000000,
   8815.000000,
   8820.000000,
   8825.000000,
   8830.000000,
   8835.000000,
   8840.000000,
   8845.000000,
   8850.000000,
   8855.000000,
   8860.000000,
   8865.000000,
   8870.000000,
   8875.000000,
   8880.000000,
   8885.000000,
   8890.000000,
   8895.000000,
   8900.000000,
   8905.000000,
   8910.000000,
   8915.000000,
   8920.000000,
   8925.000000,
   8930.000000,
   8935.000000,
   8940.000000,
   8945.000000,
   8950.000000,
   8955.000000,
   8960.000000,
   8965.000000,
   8970.000000,
   8975.000000,
   8980.000000,
   8985.000000,
   8990.000000,
   8995.000000,
   9000.000000,
   9005.000000,
   9010.000000,
   9015.000000,
   9020.000000,
   9025.000000,
   9030.000000,
   9035.000000,
   9040.000000,
   9045.000000,
   9050.000000,
   9055.000000,
   9060.000000,
   9065.000000,
   9070.000000,
   9075.000000,
   9080.000000,
   9085.000000,
   9090.000000,
   9095.000000,
   9100.000000,
   9105.000000,
   9110.000000,
   9115.000000,
   9120.000000,
   9125.000000,
   9130.000000,
   9135.000000,
   9140.000000,
   9145.000000,
   9150.000000,
   9155.000000,
   9160.000000,
   9165.000000,
   9170.000000,
   9175.000000,
   9180.000000,
   9185.000000,
   9190.000000,
   9195.000000,
   9200.000000,
   9205.000000,
   9210.000000,
   9215.000000,
   9220.000000,
   9225.000000,
   9230.000000,
   9235.000000,
   9240.000000,
   9245.000000,
   9250.000000,
   9255.000000,
   9260.000000,
   9265.000000,
   9270.000000,
   9275.000000,
   9280.000000,
   9285.000000,
   9290.000000,
   9295.000000,
   9300.000000,
   9305.000000,
   9310.000000,
   9315.000000,
   9320.000000,
   9325.000000,
   9330.000000,
   9335.000000,
   9340.000000,
   9345.000000,
   9350.000000,
   9355.000000,
   9360.000000,
   9365.000000,
   9370.000000,
   9375.000000,
   9380.000000,
   9385.000000,
   9390.000000,
   9395.000000,
   9400.000000,
   9405.000000,
   9410.000000,
   9415.000000,
   9420.000000,
   9425.000000,
   9430.000000,
   9435.000000,
   9440.000000,
   9445.000000,
   9450.000000,
   9455.000000,
   9460.000000,
   9465.000000,
   9470.000000,
   9475.000000,
   9480.000000,
   9485.000000,
   9490.000000,
   9495.000000,
   9500.000000,
   9505.000000,
   9510.000000,
   9515.000000,
   9520.000000,
   9525.000000,
   9530.000000,
   9535.000000,
   9540.000000,
   9545.000000,
   9550.000000,
   9555.000000,
   9560.000000,
   9565.000000,
   9570.000000,
   9575.000000,
   9580.000000,
   9585.000000,
   9590.000000,
   9595.000000,
   9600.000000,
   9605.000000,
   9610.000000,
   9615.000000,
   9620.000000,
   9625.000000,
   9630.000000,
   9635.000000,
   9640.000000,
   9645.000000,
   9650.000000,
   9655.000000,
   9660.000000,
   9665.000000,
   9670.000000,
   9675.000000,
   9680.000000,
   9685.000000,
   9690.000000,
   9695.000000,
   9700.000000,
   9705.000000,
   9710.000000,
   9715.000000,
   9720.000000,
   9725.000000,
   9730.000000,
   9735.000000,
   9740.000000,
   9745.000000,
   9750.000000,
   9755.000000,
   9760.000000,
   9765.000000,
   9770.000000,
   9775.000000,
   9780.000000,
   9785.000000,
   9790.000000,
   9795.000000,
   9800.000000,
   9805.000000,
   9810.000000,
   9815.000000,
   9820.000000,
   9825.000000,
   9830.000000,
   9835.000000,
   9840.000000,
   9845.000000,
   9850.000000,
   9855.000000,
   9860.000000,
   9865.000000,
   9870.000000,
   9875.000000,
   9880.000000,
   9885.000000,
   9890.000000,
   9895.000000,
   9900.000000,
   9905.000000,
   9910.000000,
   9915.000000,
   9920.000000,
   9925.000000,
   9930.000000,
   9935.000000,
   9940.000000,
   9945.000000,
   9950.000000,
   9955.000000,
   9960.000000,
   9965.000000,
   9970.000000,
   9975.000000,
   9980.000000,
   9985.000000,
   9990.000000,
   9995.000000,
   10000.000000,
   10005.000000,
   10010.000000,
   10015.000000,
   10020.000000,
   10025.000000,
   10030.000000,
   10035.000000,
   10040.000000,
   10045.000000,
   10050.000000,
   10055.000000,
   10060.000000,
   10065.000000,
   10070.000000,
   10075.000000,
   10080.000000,
   10085.000000,
   10090.000000,
   10095.000000,
   10100.000000,
   10105.000000,
   10110.000000,
   10115.000000,
   10120.000000,
   10125.000000,
   10130.000000,
   10135.000000,
   10140.000000,
   10145.000000,
   10150.000000,
   10155.000000,
   10160.000000,
   10165.000000,
   10170.000000,
   10175.000000,
   10180.000000,
   10185.000000,
   10190.000000,
   10195.000000,
   10200.000000,
   10205.000000,
   10210.000000,
   10215.000000,
   10220.000000,
   10225.000000,
   10230.000000,
   10235.000000,
   10240.000000,
   10245.000000,
   10250.000000,
   10255.000000,
   10260.000000,
   10265.000000,
   10270.000000,
   10275.000000,
   10280.000000,
   10285.000000,
   10290.000000,
   10295.000000,
   10300.000000,
   10305.000000,
   10310.000000,
   10315.000000,
   10320.000000,
   10325.000000,
   10330.000000,
   10335.000000,
   10340.000000,
   10345.000000,
   10350.000000,
   10355.000000,
   10360.000000,
   10365.000000,
   10370.000000,
   10375.000000,
   10380.000000,
   10385.000000,
   10390.000000,
   10395.000000,
   10400.000000,
   10405.000000,
   10410.000000,
   10415.000000,
   10420.000000,
   10425.000000,
   10430.000000,
   10435.000000,
   10440.000000,
   10445.000000,
   10450.000000,
   10455.000000,
   10460.000000,
   10465.000000,
   10470.000000,
   10475.000000,
   10480.000000,
   10485.000000,
   10490.000000,
   10495.000000,
   10500.000000,
   10505.000000,
   10510.000000,
   10515.000000,
   10520.000000,
   10525.000000,
   10530.000000,
   10535.000000,
   10540.000000,
   10545.000000,
   10550.000000,
   10555.000000,
   10560.000000,
   10565.000000,
   10570.000000,
   10575.000000,
   10580.000000,
   10585.000000,
   10590.000000,
   10595.000000,
   10600.000000,
   10605.000000,
   10610.000000,
   10615.000000,
   10620.000000
};

static double _a3v_flux[] = {
   0.000000,
   0.031472,
   0.041861,
   0.000000,
   0.000000,
   0.000000,
   0.000000,
   0.000000,
   0.000000,
   0.000000,
   0.000000,
   0.007763,
   0.032597,
   0.049138,
   0.035107,
   0.012297,
   0.008853,
   0.009024,
   0.015564,
   0.005788,
   0.008141,
   0.010380,
   0.009908,
   0.015776,
   0.022560,
   0.028252,
   0.044197,
   0.056652,
   0.049619,
   0.068418,
   0.064254,
   0.048627,
   0.054869,
   0.098457,
   0.123269,
   0.117805,
   0.110760,
   0.118982,
   0.156111,
   0.176466,
   0.156372,
   0.135375,
   0.147126,
   0.152137,
   0.143659,
   0.162518,
   0.163347,
   0.167811,
   0.166477,
   0.160943,
   0.156764,
   0.169611,
   0.172429,
   0.190395,
   0.210136,
   0.208977,
   0.204553,
   0.189658,
   0.214908,
   0.234664,
   0.254696,
   0.263577,
   0.255723,
   0.243311,
   0.229754,
   0.239523,
   0.250504,
   0.269883,
   0.302688,
   0.308387,
   0.348699,
   0.320290,
   0.277526,
   0.284740,
   0.315430,
   0.285902,
   0.278463,
   0.308885,
   0.360926,
   0.388254,
   0.392958,
   0.390193,
   0.389230,
   0.460690,
   0.467526,
   0.504887,
   0.591349,
   0.592767,
   0.557535,
   0.548230,
   0.598859,
   0.610749,
   0.607378,
   0.603066,
   0.603360,
   0.627023,
   0.610169,
   0.601846,
   0.641903,
   0.695675,
   0.676760,
   0.579837,
   0.590097,
   0.707265,
   0.631649,
   0.632344,
   0.712219,
   0.723268,
   0.726292,
   0.707626,
   0.719414,
   0.746126,
   0.767696,
   0.789036,
   0.787056,
   0.760873,
   0.820652,
   0.830157,
   0.848679,
   0.859384,
   0.900829,
   0.960421,
   0.913352,
   0.844615,
   0.888232,
   0.952519,
   0.987326,
   0.937554,
   0.885167,
   0.989087,
   1.077985,
   1.014981,
   0.973626,
   1.002433,
   1.021064,
   1.014267,
   0.973733,
   0.944397,
   0.898711,
   0.857289,
   0.873393,
   0.883804,
   0.905337,
   0.919287,
   0.948111,
   0.952265,
   0.959722,
   0.984240,
   0.967093,
   0.939858,
   0.902296,
   0.896680,
   0.899496,
   0.920315,
   0.939878,
   0.920474,
   0.885326,
   0.891460,
   0.951299,
   0.986250,
   0.983661,
   0.962449,
   0.935132,
   0.956161,
   0.963449,
   0.995171,
   0.974115,
   0.960774,
   0.938083,
   0.891940,
   0.906586,
   0.931401,
   0.883368,
   0.911852,
   0.900239,
   0.902125,
   0.915106,
   0.938406,
   0.913104,
   0.880299,
   0.951679,
   0.991395,
   0.897929,
   0.874686,
   0.919249,
   0.956698,
   0.998548,
   1.014821,
   1.000340,
   0.964088,
   0.923543,
   0.911347,
   0.927912,
   0.909672,
   0.905545,
   0.931691,
   0.931987,
   0.821748,
   0.734855,
   0.813165,
   0.866613,
   0.869463,
   0.869573,
   0.821737,
   0.800069,
   0.771982,
   0.756810,
   0.807072,
   0.853384,
   0.853090,
   0.840772,
   0.830116,
   0.794878,
   0.745113,
   0.717050,
   0.726328,
   0.743144,
   0.750740,
   0.781806,
   0.744625,
   0.703536,
   0.707747,
   0.686971,
   0.685037,
   0.717806,
   0.725609,
   0.758137,
   0.763654,
   0.783798,
   0.752984,
   0.699532,
   0.675568,
   0.708516,
   0.728642,
   0.689717,
   0.694214,
   0.693517,
   0.692790,
   0.642624,
   0.604273,
   0.581407,
   0.620933,
   0.657986,
   0.641200,
   0.621508,
   0.649716,
   0.651033,
   0.600068,
   0.549994,
   0.573416,
   0.596802,
   0.582153,
   0.544306,
   0.547222,
   0.612505,
   0.677521,
   0.692488,
   0.657627,
   0.627139,
   0.660394,
   0.674038,
   0.678716,
   0.697739,
   0.697330,
   0.643590,
   0.622886,
   0.635535,
   0.628828,
   0.623372,
   0.631040,
   0.695555,
   0.701033,
   0.684577,
   0.674473,
   0.654566,
   0.611149,
   0.571473,
   0.573292,
   0.580326,
   0.578060,
   0.589949,
   0.612680,
   0.655936,
   0.661054,
   0.712949,
   0.734788,
   0.626161,
   0.594806,
   0.669941,
   0.726037,
   0.705974,
   0.667520,
   0.651613,
   0.633780,
   0.672468,
   0.701797,
   0.674764,
   0.679337,
   0.754484,
   0.826649,
   0.865225,
   0.864785,
   0.833859,
   0.766190,
   0.730603,
   0.734791,
   0.768082,
   0.770655,
   0.750917,
   0.710296,
   0.696371,
   0.730903,
   0.723487,
   0.693514,
   0.703630,
   0.697509,
   0.727741,
   0.755193,
   0.724671,
   0.654234,
   0.618530,
   0.608333,
   0.645140,
   0.690645,
   0.703078,
   0.697383,
   0.715559,
   0.673098,
   0.652657,
   0.586834,
   0.447880,
   0.461069,
   0.598645,
   0.721918,
   0.780668,
   0.785518,
   0.760652,
   0.746353,
   0.746970,
   0.726763,
   0.724001,
   0.703783,
   0.708963,
   0.742947,
   0.736801,
   0.729170,
   0.719359,
   0.747995,
   0.747739,
   0.741196,
   0.753384,
   0.784272,
   0.815969,
   0.832476,
   0.838894,
   0.795901,
   0.780415,
   0.787630,
   0.777172,
   0.798871,
   0.778604,
   0.791762,
   0.820901,
   0.823829,
   0.803839,
   0.798581,
   0.829048,
   0.809438,
   0.815796,
   0.836693,
   0.826645,
   0.794143,
   0.835852,
   0.835393,
   0.798415,
   0.793957,
   0.792117,
   0.809455,
   0.818849,
   0.804329,
   0.789985,
   0.807367,
   0.782458,
   0.767501,
   0.784333,
   0.804126,
   0.831064,
   0.832743,
   0.830733,
   0.809201,
   0.775977,
   0.794708,
   0.830839,
   0.825617,
   0.797305,
   0.796812,
   0.805727,
   0.819487,
   0.867560,
   0.859897,
   0.852049,
   0.870719,
   0.821461,
   0.814684,
   0.848516,
   0.879850,
   0.855968,
   0.838113,
   0.860774,
   0.856167,
   0.876807,
   0.876997,
   0.873128,
   0.864385,
   0.855409,
   0.852046,
   0.859508,
   0.878275,
   0.890532,
   0.882512,
   0.874941,
   0.887280,
   0.899454,
   0.889104,
   0.864267,
   0.839981,
   0.828876,
   0.838436,
   0.857970,
   0.873718,
   0.877824,
   0.867519,
   0.854457,
   0.850192,
   0.851442,
   0.851640,
   0.845900,
   0.833364,
   0.827572,
   0.839199,
   0.853045,
   0.853001,
   0.845202,
   0.839006,
   0.834428,
   0.830420,
   0.831012,
   0.838994,
   0.847116,
   0.848565,
   0.848327,
   0.852450,
   0.859438,
   0.866063,
   0.869718,
   0.868628,
   0.863738,
   0.856412,
   0.846998,
   0.836579,
   0.830196,
   0.831407,
   0.833865,
   0.831363,
   0.828144,
   0.828679,
   0.827904,
   0.821022,
   0.813834,
   0.812771,
   0.816180,
   0.820852,
   0.823904,
   0.807517,
   0.809341,
   0.808258,
   0.814745,
   0.811617,
   0.800713,
   0.810908,
   0.814938,
   0.814761,
   0.816630,
   0.801318,
   0.783382,
   0.771784,
   0.765851,
   0.767994,
   0.772593,
   0.781289,
   0.784247,
   0.791597,
   0.779237,
   0.781573,
   0.780098,
   0.790291,
   0.782748,
   0.783447,
   0.784719,
   0.778428,
   0.780389,
   0.788142,
   0.804102,
   0.799540,
   0.782884,
   0.783038,
   0.779111,
   0.767642,
   0.773424,
   0.795562,
   0.795463,
   0.771574,
   0.833982,
   0.878834,
   0.868714,
   0.905853,
   0.917093,
   0.889750,
   0.999053,
   0.961444,
   0.900343,
   1.067010,
   1.151274,
   1.070042,
   0.962722,
   1.165335,
   1.433434,
   1.485155,
   1.303058,
   1.036171,
   1.055854,
   1.369198,
   1.607129,
   1.700500,
   1.689239,
   1.455490,
   1.137518,
   0.961174,
   1.196093,
   1.554736,
   1.817418,
   1.962554,
   2.026053,
   2.077668,
   1.999287,
   1.780175,
   1.483611,
   1.148365,
   1.062189,
   1.324905,
   1.633009,
   1.875839,
   2.054314,
   2.130157,
   2.110272,
   2.073843,
   1.731571,
   1.679722,
   1.940196,
   2.000699,
   1.952223,
   1.742299,
   1.398793,
   1.049805,
   0.917796,
   1.217155,
   1.566812,
   1.789913,
   1.975971,
   2.107779,
   2.150726,
   2.178254,
   2.204294,
   2.228800,
   2.241989,
   2.222133,
   2.209704,
   2.222958,
   2.219635,
   2.206004,
   2.193592,
   2.161935,
   2.121491,
   2.070059,
   2.026020,
   1.940941,
   1.844878,
   1.695484,
   1.481755,
   1.192498,
   0.962537,
   1.086450,
   1.385843,
   1.625731,
   1.786811,
   1.868513,
   1.925321,
   2.005296,
   2.036113,
   2.072924,
   2.067378,
   2.048235,
   2.056211,
   2.065502,
   2.003869,
   1.977400,
   1.992810,
   2.007920,
   2.032908,
   2.033768,
   2.011110,
   1.984106,
   2.004058,
   1.997361,
   1.965173,
   1.942423,
   1.947577,
   1.950138,
   1.950071,
   1.898411,
   1.892576,
   1.912675,
   1.907999,
   1.944465,
   1.916386,
   1.910413,
   1.913732,
   1.877266,
   1.836078,
   1.811160,
   1.763486,
   1.747649,
   1.718626,
   1.638936,
   1.572482,
   1.447026,
   1.284130,
   1.029660,
   0.866950,
   0.999144,
   1.211004,
   1.427093,
   1.596056,
   1.680200,
   1.718956,
   1.747316,
   1.747298,
   1.747666,
   1.745734,
   1.759506,
   1.757351,
   1.755130,
   1.749709,
   1.735605,
   1.744238,
   1.779311,
   1.780816,
   1.755517,
   1.739853,
   1.729688,
   1.735467,
   1.753612,
   1.746646,
   1.733662,
   1.713036,
   1.699998,
   1.659120,
   1.684115,
   1.695319,
   1.707584,
   1.741309,
   1.729274,
   1.719125,
   1.692978,
   1.680895,
   1.672508,
   1.656939,
   1.650510,
   1.681875,
   1.623021,
   1.608256,
   1.612818,
   1.628229,
   1.640859,
   1.643155,
   1.618727,
   1.591730,
   1.586063,
   1.597830,
   1.618860,
   1.618382,
   1.622546,
   1.620857,
   1.599559,
   1.577905,
   1.607436,
   1.566189,
   1.581225,
   1.586752,
   1.578565,
   1.573241,
   1.581182,
   1.583099,
   1.551314,
   1.542487,
   1.571982,
   1.568931,
   1.566686,
   1.558487,
   1.551594,
   1.514979,
   1.505634,
   1.512652,
   1.507412,
   1.505862,
   1.504305,
   1.479247,
   1.470812,
   1.482942,
   1.493977,
   1.482133,
   1.469887,
   1.450533,
   1.439854,
   1.445316,
   1.441393,
   1.435974,
   1.430755,
   1.429353,
   1.423725,
   1.400051,
   1.396119,
   1.399069,
   1.384185,
   1.357366,
   1.333590,
   1.313216,
   1.276366,
   1.210964,
   1.117995,
   0.991662,
   0.803120,
   0.675596,
   0.763575,
   0.916890,
   1.068485,
   1.155220,
   1.208567,
   1.250382,
   1.294282,
   1.321496,
   1.350362,
   1.341130,
   1.337983,
   1.296569,
   1.310098,
   1.352908,
   1.348401,
   1.353239,
   1.364887,
   1.359601,
   1.333151,
   1.333148,
   1.345992,
   1.342445,
   1.331579,
   1.297250,
   1.304159,
   1.325833,
   1.320738,
   1.314877,
   1.291420,
   1.282075,
   1.257889,
   1.245882,
   1.277605,
   1.280784,
   1.266238,
   1.265678,
   1.277787,
   1.275157,
   1.261395,
   1.272289,
   1.273519,
   1.267770,
   1.254615,
   1.254345,
   1.261924,
   1.267360,
   1.253285,
   1.246670,
   1.255950,
   1.251811,
   1.244183,
   1.246151,
   1.228732,
   1.221265,
   1.224696,
   1.217186,
   1.222857,
   1.230227,
   1.217005,
   1.197622,
   1.146335,
   1.135291,
   1.179649,
   1.182136,
   1.159261,
   1.159262,
   1.161842,
   1.169829,
   1.165390,
   1.164745,
   1.169717,
   1.176307,
   1.148112,
   1.135890,
   1.140577,
   1.160112,
   1.166042,
   1.154256,
   1.145429,
   1.122590,
   1.086746,
   1.080381,
   1.096710,
   1.107653,
   1.119535,
   1.145080,
   1.146402,
   1.123427,
   1.118343,
   1.112939,
   1.098021,
   1.102417,
   1.091555,
   1.090644,
   1.080001,
   1.076255,
   1.093123,
   1.092588,
   1.106341,
   1.094428,
   1.064195,
   1.063048,
   1.079755,
   1.077138,
   1.074673,
   1.074124,
   1.061375,
   1.047881,
   1.046845,
   1.052648,
   1.060693,
   1.064301,
   1.051041,
   1.053520,
   1.063238,
   1.069718,
   1.062622,
   1.059383,
   1.053775,
   1.052551,
   1.046415,
   1.042282,
   1.034138,
   1.032239,
   1.034982,
   1.036765,
   1.038644,
   1.040503,
   1.023395,
   1.017495,
   1.030066,
   1.026663,
   1.005417,
   1.004170,
   1.010756,
   1.004763,
   1.002463,
   1.013167,
   1.006590,
   0.995430,
   0.998650,
   0.994369,
   1.000479,
   1.000760,
   0.981703,
   0.970234,
   0.976518,
   0.976698,
   0.977057,
   0.982112,
   0.974374,
   0.969137,
   0.970444,
   0.969616,
   0.968472,
   0.968958,
   0.968758,
   0.966210,
   0.953169,
   0.947240,
   0.951082,
   0.950007,
   0.946071,
   0.941873,
   0.932247,
   0.930288,
   0.930613,
   0.937220,
   0.927812,
   0.920582,
   0.916694,
   0.917083,
   0.918799,
   0.925168,
   0.929383,
   0.921376,
   0.913643,
   0.911950,
   0.909897,
   0.902384,
   0.896754,
   0.894403,
   0.898141,
   0.890772,
   0.888100,
   0.892429,
   0.892513,
   0.889786,
   0.889991,
   0.891367,
   0.892118,
   0.896324,
   0.888817,
   0.891279,
   0.886817,
   0.886942,
   0.883055,
   0.879879,
   0.874315,
   0.871487,
   0.875394,
   0.882080,
   0.879754,
   0.870492,
   0.840382,
   0.806979,
   0.813136,
   0.836872,
   0.857398,
   0.860701,
   0.854257,
   0.850916,
   0.843739,
   0.840917,
   0.840258,
   0.835483,
   0.826961,
   0.823756,
   0.825235,
   0.823643,
   0.820050,
   0.817163,
   0.817751,
   0.814592,
   0.805955,
   0.808758,
   0.822520,
   0.816725,
   0.802876,
   0.802427,
   0.802368,
   0.797680,
   0.797389,
   0.801041,
   0.796292,
   0.792911,
   0.789720,
   0.786111,
   0.790319,
   0.792703,
   0.788747,
   0.789452,
   0.786411,
   0.782614,
   0.782292,
   0.783543,
   0.776367,
   0.770069,
   0.768203,
   0.776321,
   0.775744,
   0.774961,
   0.768445,
   0.768193,
   0.758633,
   0.748698,
   0.743202,
   0.740239,
   0.740071,
   0.744194,
   0.743319,
   0.741588,
   0.750634,
   0.744948,
   0.745673,
   0.747573,
   0.748721,
   0.749317,
   0.749683,
   0.746502,
   0.740547,
   0.741090,
   0.735343,
   0.726734,
   0.722945,
   0.723031,
   0.721956,
   0.720790,
   0.724869,
   0.721286,
   0.715986,
   0.712621,
   0.696687,
   0.686605,
   0.698825,
   0.702796,
   0.703532,
   0.699042,
   0.701490,
   0.701856,
   0.693802,
   0.692214,
   0.697624,
   0.698720,
   0.701550,
   0.696759,
   0.684816,
   0.688593,
   0.693605,
   0.691600,
   0.680171,
   0.673071,
   0.680378,
   0.676680,
   0.678874,
   0.681304,
   0.678803,
   0.676026,
   0.670525,
   0.669275,
   0.662098,
   0.662332,
   0.664428,
   0.664139,
   0.662233,
   0.659265,
   0.659744,
   0.652956,
   0.642377,
   0.644330,
   0.649912,
   0.653359,
   0.650633,
   0.647936,
   0.643833,
   0.638866,
   0.631956,
   0.638145,
   0.641561,
   0.637244,
   0.629432,
   0.633505,
   0.628235,
   0.615201,
   0.601087,
   0.584222,
   0.561773,
   0.518567,
   0.460086,
   0.392355,
   0.403167,
   0.472718,
   0.531106,
   0.567227,
   0.585633,
   0.597577,
   0.605922,
   0.612190,
   0.613878,
   0.617210,
   0.615510,
   0.614487,
   0.620492,
   0.620637,
   0.618260,
   0.620385,
   0.612300,
   0.609583,
   0.608402,
   0.608244,
   0.610659,
   0.608603,
   0.602716,
   0.601768,
   0.600981,
   0.605932,
   0.604711,
   0.599619,
   0.600849,
   0.597102,
   0.592800,
   0.586278,
   0.587230,
   0.590073,
   0.594392,
   0.594522,
   0.593370,
   0.586871,
   0.583870,
   0.588121,
   0.589795,
   0.584305,
   0.584198,
   0.582157,
   0.579127,
   0.575825,
   0.575463,
   0.576670,
   0.577358,
   0.581520,
   0.582239,
   0.580441,
   0.582077,
   0.584143,
   0.578716,
   0.575162,
   0.574161,
   0.573160,
   0.572159,
   0.571158,
   0.570158,
   0.569157,
   0.568156,
   0.567155,
   0.566154,
   0.565154,
   0.564153,
   0.563152,
   0.562151,
   0.561150,
   0.560150,
   0.559149,
   0.558148,
   0.557147,
   0.556146,
   0.555146,
   0.554145,
   0.553144,
   0.552143,
   0.551142,
   0.550142,
   0.549141,
   0.541400,
   0.542352,
   0.537550,
   0.533709,
   0.532900,
   0.525985,
   0.523833,
   0.528134,
   0.524552,
   0.524903,
   0.525710,
   0.525335,
   0.528338,
   0.521257,
   0.523368,
   0.524924,
   0.520041,
   0.518653,
   0.519151,
   0.515072,
   0.516989,
   0.512886,
   0.508892,
   0.505161,
   0.505880,
   0.505242,
   0.503068,
   0.499812,
   0.496585,
   0.496995,
   0.505008,
   0.512842,
   0.515283,
   0.511972,
   0.503575,
   0.501636,
   0.505696,
   0.503881,
   0.498941,
   0.491667,
   0.485768,
   0.479477,
   0.474177,
   0.475375,
   0.476777,
   0.475512,
   0.481013,
   0.491667,
   0.500703,
   0.496688,
   0.490153,
   0.484639,
   0.480105,
   0.476417,
   0.478571,
   0.478276,
   0.480265,
   0.480300,
   0.469095,
   0.468938,
   0.467789,
   0.468733,
   0.471798,
   0.464805,
   0.463226,
   0.459375,
   0.462299,
   0.462965,
   0.465812,
   0.464088,
   0.465355,
   0.461357,
   0.460809,
   0.462599,
   0.467196,
   0.464877,
   0.460440,
   0.456791,
   0.456413,
   0.450888,
   0.446293,
   0.450662,
   0.448119,
   0.445712,
   0.444784,
   0.444661,
   0.441549,
   0.438446,
   0.439580,
   0.443291,
   0.450314,
   0.452973,
   0.452710,
   0.450303,
   0.446467,
   0.448485,
   0.449105,
   0.446709,
   0.446172,
   0.447612,
   0.447329,
   0.446204,
   0.445016,
   0.443051,
   0.441926,
   0.442315,
   0.440549,
   0.437438,
   0.437333,
   0.441253,
   0.439918,
   0.438268,
   0.436450,
   0.437417,
   0.437616,
   0.435546,
   0.434656,
   0.433766,
   0.432876,
   0.431986,
   0.431096,
   0.430206,
   0.429316,
   0.428426,
   0.427536,
   0.426646,
   0.425756,
   0.424867,
   0.423977,
   0.423087,
   0.422197,
   0.421307,
   0.420417,
   0.419527,
   0.418637,
   0.417747,
   0.416857,
   0.415967,
   0.415077,
   0.414187,
   0.413297,
   0.412407,
   0.411518,
   0.410628,
   0.409738,
   0.408848,
   0.407958,
   0.407068,
   0.406178,
   0.405288,
   0.404398,
   0.403508,
   0.403445,
   0.400565,
   0.400544,
   0.402899,
   0.401711,
   0.400313,
   0.394542,
   0.379984,
   0.374866,
   0.388992,
   0.396087,
   0.398295,
   0.396497,
   0.393102,
   0.394385,
   0.394111,
   0.393691,
   0.394647,
   0.391788,
   0.387227,
   0.386659,
   0.388141,
   0.388046,
   0.389413,
   0.388866,
   0.385492,
   0.383653,
   0.382991,
   0.379995,
   0.378576,
   0.380636,
   0.376863,
   0.370934,
   0.372185,
   0.376768,
   0.378198,
   0.376957,
   0.372637,
   0.370756,
   0.368990,
   0.367813,
   0.367960,
   0.367497,
   0.368685,
   0.369148,
   0.369600,
   0.368927,
   0.367560,
   0.369106,
   0.368401,
   0.368054,
   0.367939,
   0.364638,
   0.361674,
   0.361401,
   0.361916,
   0.362273,
   0.363041,
   0.362032,
   0.359509,
   0.359498,
   0.357491,
   0.356902,
   0.358552,
   0.358426,
   0.358584,
   0.358037,
   0.356671,
   0.355662,
   0.354726,
   0.353717,
   0.354117,
   0.352750,
   0.352205,
   0.351659,
   0.351113,
   0.350567,
   0.350022,
   0.349476,
   0.348930,
   0.348385,
   0.347839,
   0.347293,
   0.346747,
   0.346202,
   0.345656,
   0.345110,
   0.344564,
   0.344019,
   0.343473,
   0.342927,
   0.342382,
   0.341836,
   0.341290,
   0.340744,
   0.340199,
   0.339653,
   0.339107,
   0.338561,
   0.338016,
   0.337470,
   0.336924,
   0.336379,
   0.335833,
   0.335287,
   0.334741,
   0.334196,
   0.333650,
   0.333104,
   0.332558,
   0.332013,
   0.331467,
   0.330921,
   0.330376,
   0.329830,
   0.329284,
   0.328738,
   0.328193,
   0.327647,
   0.327101,
   0.326555,
   0.326010,
   0.325464,
   0.324918,
   0.324373,
   0.323827,
   0.323281,
   0.322735,
   0.322190,
   0.321644,
   0.321098,
   0.320552,
   0.320007,
   0.319461,
   0.318915,
   0.319241,
   0.319241,
   0.320072,
   0.323120,
   0.322416,
   0.314564,
   0.307574,
   0.305051,
   0.311242,
   0.315016,
   0.314900,
   0.313292,
   0.309960,
   0.312619,
   0.314543,
   0.315037,
   0.309214,
   0.295518,
   0.293027,
   0.302224,
   0.307059,
   0.309140,
   0.310832,
   0.311358,
   0.308036,
   0.292743,
   0.271826,
   0.272362,
   0.291776,
   0.301036,
   0.306828,
   0.309897,
   0.309382,
   0.308268,
   0.306155,
   0.300016,
   0.292659,
   0.284155,
   0.283167,
   0.289590,
   0.298030,
   0.303958,
   0.308057,
   0.310864,
   0.310223,
   0.307448,
   0.303748,
   0.297431,
   0.291608,
   0.277355,
   0.254588,
   0.250446,
   0.267338,
   0.280519,
   0.286394,
   0.290136,
   0.294656,
   0.298146,
   0.300384,
   0.301614,
   0.301425,
   0.298787,
   0.297736,
   0.293762,
   0.289411,
   0.281254,
   0.270449,
   0.253726,
   0.246547,
   0.258803,
   0.276461,
   0.294498,
   0.295728,
   0.294845,
   0.296727,
   0.295844,
   0.296558,
   0.297221,
   0.296674,
   0.294645,
   0.296117,
   0.297378,
   0.299922,
   0.302487,
   0.296674,
   0.289947,
   0.281654,
   0.274422,
   0.264552,
   0.246841,
   0.231642,
   0.234438,
   0.250268,
   0.264247,
   0.276524,
   0.286405,
   0.285364,
   0.286625,
   0.293090,
   0.294923,
   0.294099,
   0.297342,
   0.297406,
   0.291584,
   0.297094,
   0.295842,
   0.294110,
   0.291833,
   0.288765,
   0.284616,
   0.279098,
   0.272060,
   0.263914,
   0.255209,
   0.246497,
   0.238398,
   0.231813,
   0.227712,
   0.227066,
   0.230438,
   0.236765,
   0.244580,
   0.252413,
   0.259060,
   0.264370,
   0.268459,
   0.271440,
   0.273395,
   0.274275,
   0.273997,
   0.272481,
   0.269839,
   0.266972,
   0.264975,
   0.264942,
   0.267559,
   0.271873,
   0.276518,
   0.280131,
   0.281680,
   0.281465,
   0.280116,
   0.278265,
   0.276434,
   0.274705,
   0.273051,
   0.271444,
   0.269861,
   0.268293,
   0.266735,
   0.265183,
   0.263598,
   0.261806,
   0.259600,
   0.256771,
   0.253124,
   0.248505,
   0.242772,
   0.235782,
   0.227726,
   0.220120,
   0.214815,
   0.213660,
   0.217780,
   0.225399,
   0.234016,
   0.241129,
   0.244938,
   0.246445,
   0.247353,
   0.249365,
   0.253578,
   0.258656,
   0.262660,
   0.263647,
   0.260267,
   0.253524,
   0.245011,
   0.236324,
   0.228868,
   0.223301,
   0.220095,
   0.219719,
   0.222286,
   0.226471,
   0.230591,
   0.232961,
   0.232439,
   0.230032,
   0.227291,
   0.225763,
   0.226593,
   0.229301,
   0.233006,
   0.236823,
   0.239936,
   0.241787,
   0.241889,
   0.239750,
   0.235193,
   0.229284,
   0.223401,
   0.218923,
   0.216861,
   0.216753,
   0.217769,
   0.219081,
   0.220039,
   0.220707,
   0.221332,
   0.222157,
   0.223268,
   0.224116,
   0.223991,
   0.222185,
   0.218247,
   0.212755,
   0.206546,
   0.200458,
   0.195160,
   0.190656,
   0.186779,
   0.183367,
   0.180326,
   0.177848,
   0.176198,
   0.175641,
   0.176433,
   0.178809,
   0.182995,
   0.189219,
   0.197431,
   0.206477,
   0.214928,
   0.221353,
   0.224714,
   0.225535,
   0.224732,
   0.223220,
   0.221797,
   0.220781,
   0.220373,
   0.220771,
   0.222094,
   0.224127,
   0.226573,
   0.229135,
   0.231573,
   0.233876,
   0.236094,
   0.238271,
   0.240377,
   0.242058,
   0.242878,
   0.242405,
   0.240384,
   0.237279,
   0.233733,
   0.230389,
   0.227792,
   0.226083,
   0.225305,
   0.225502,
   0.226619,
   0.228220,
   0.229773,
   0.230745,
   0.230745,
   0.229940,
   0.228640,
   0.227152,
   0.225784,
   0.224835,
   0.224605,
   0.225390,
   0.227265,
   0.229409,
   0.230775,
   0.230318,
   0.227415,
   0.223129,
   0.218949,
   0.216361,
   0.216392,
   0.218226,
   0.220588,
   0.222203,
   0.222124,
   0.220710,
   0.218652,
   0.216637,
   0.215217,
   0.214390,
   0.214017,
   0.213959,
   0.214082,
   0.214267,
   0.214402,
   0.214375,
   0.214112,
   0.213704,
   0.213280,
   0.212971,
   0.212842,
   0.212709,
   0.212323,
   0.211437,
   0.209940,
   0.208274,
   0.207021,
   0.206760,
   0.207818,
   0.209501,
   0.210863,
   0.210954,
   0.209083,
   0.205573,
   0.201003,
   0.195952,
   0.190872,
   0.185701,
   0.180253,
   0.174339,
   0.168015,
   0.162309,
   0.158492,
   0.157834,
   0.161132,
   0.167285,
   0.174716,
   0.181851,
   0.187404,
   0.191253,
   0.193567,
   0.194515,
   0.194322,
   0.193437,
   0.192365,
   0.191610,
   0.191570,
   0.192206,
   0.193372,
   0.194919,
   0.196661,
   0.198244,
   0.199274,
   0.199358,
   0.198263,
   0.196412,
   0.194389,
   0.192779,
   0.192034,
   0.192075,
   0.192690,
   0.193666,
   0.194755,
   0.195556,
   0.195633,
   0.194548,
   0.192074,
   0.188819,
   0.185600,
   0.183233,
   0.182317,
   0.182567,
   0.183480,
   0.184553,
   0.185383,
   0.185960,
   0.186378,
   0.186727,
   0.187066,
   0.187321,
   0.187386,
   0.187155,
   0.186570,
   0.185783,
   0.184994,
   0.184405,
   0.184167,
   0.184238,
   0.184527,
   0.184943,
   0.185397,
   0.185814,
   0.186120,
   0.186241,
   0.186115,
   0.185729,
   0.185079,
   0.184165,
   0.183027,
   0.181888,
   0.181017,
   0.180678,
   0.181038,
   0.181845,
   0.182747,
   0.183391,
   0.183497,
   0.183082,
   0.182235,
   0.181046,
   0.179656,
   0.178418,
   0.177733,
   0.178005,
   0.179412,
   0.181224,
   0.182489,
   0.182251,
   0.179915,
   0.176310,
   0.172625,
   0.170047,
   0.169427,
   0.170266,
   0.171728,
   0.172975,
   0.173330,
   0.172737,
   0.171302,
   0.169128,
   0.166392,
   0.163572,
   0.161216,
   0.159876,
   0.159943,
   0.161175,
   0.163170,
   0.165528,
   0.167852,
   0.169763,
   0.170887,
   0.170847,
   0.169453,
   0.167244,
   0.164942,
   0.163269,
   0.162773,
   0.163290,
   0.164484,
   0.166015
};

#endif
