#ifndef _A5V_H_
#define _A5V_H_

/* spectrum for a5v star           */
/* number of elements = 1895       */

static double _a5v_lambda[] = {
   1150.000000,
   1155.000000,
   1160.000000,
   1165.000000,
   1170.000000,
   1175.000000,
   1180.000000,
   1185.000000,
   1190.000000,
   1195.000000,
   1200.000000,
   1205.000000,
   1210.000000,
   1215.000000,
   1220.000000,
   1225.000000,
   1230.000000,
   1235.000000,
   1240.000000,
   1245.000000,
   1250.000000,
   1255.000000,
   1260.000000,
   1265.000000,
   1270.000000,
   1275.000000,
   1280.000000,
   1285.000000,
   1290.000000,
   1295.000000,
   1300.000000,
   1305.000000,
   1310.000000,
   1315.000000,
   1320.000000,
   1325.000000,
   1330.000000,
   1335.000000,
   1340.000000,
   1345.000000,
   1350.000000,
   1355.000000,
   1360.000000,
   1365.000000,
   1370.000000,
   1375.000000,
   1380.000000,
   1385.000000,
   1390.000000,
   1395.000000,
   1400.000000,
   1405.000000,
   1410.000000,
   1415.000000,
   1420.000000,
   1425.000000,
   1430.000000,
   1435.000000,
   1440.000000,
   1445.000000,
   1450.000000,
   1455.000000,
   1460.000000,
   1465.000000,
   1470.000000,
   1475.000000,
   1480.000000,
   1485.000000,
   1490.000000,
   1495.000000,
   1500.000000,
   1505.000000,
   1510.000000,
   1515.000000,
   1520.000000,
   1525.000000,
   1530.000000,
   1535.000000,
   1540.000000,
   1545.000000,
   1550.000000,
   1555.000000,
   1560.000000,
   1565.000000,
   1570.000000,
   1575.000000,
   1580.000000,
   1585.000000,
   1590.000000,
   1595.000000,
   1600.000000,
   1605.000000,
   1610.000000,
   1615.000000,
   1620.000000,
   1625.000000,
   1630.000000,
   1635.000000,
   1640.000000,
   1645.000000,
   1650.000000,
   1655.000000,
   1660.000000,
   1665.000000,
   1670.000000,
   1675.000000,
   1680.000000,
   1685.000000,
   1690.000000,
   1695.000000,
   1700.000000,
   1705.000000,
   1710.000000,
   1715.000000,
   1720.000000,
   1725.000000,
   1730.000000,
   1735.000000,
   1740.000000,
   1745.000000,
   1750.000000,
   1755.000000,
   1760.000000,
   1765.000000,
   1770.000000,
   1775.000000,
   1780.000000,
   1785.000000,
   1790.000000,
   1795.000000,
   1800.000000,
   1805.000000,
   1810.000000,
   1815.000000,
   1820.000000,
   1825.000000,
   1830.000000,
   1835.000000,
   1840.000000,
   1845.000000,
   1850.000000,
   1855.000000,
   1860.000000,
   1865.000000,
   1870.000000,
   1875.000000,
   1880.000000,
   1885.000000,
   1890.000000,
   1895.000000,
   1900.000000,
   1905.000000,
   1910.000000,
   1915.000000,
   1920.000000,
   1925.000000,
   1930.000000,
   1935.000000,
   1940.000000,
   1945.000000,
   1950.000000,
   1955.000000,
   1960.000000,
   1965.000000,
   1970.000000,
   1975.000000,
   1980.000000,
   1985.000000,
   1990.000000,
   1995.000000,
   2000.000000,
   2005.000000,
   2010.000000,
   2015.000000,
   2020.000000,
   2025.000000,
   2030.000000,
   2035.000000,
   2040.000000,
   2045.000000,
   2050.000000,
   2055.000000,
   2060.000000,
   2065.000000,
   2070.000000,
   2075.000000,
   2080.000000,
   2085.000000,
   2090.000000,
   2095.000000,
   2100.000000,
   2105.000000,
   2110.000000,
   2115.000000,
   2120.000000,
   2125.000000,
   2130.000000,
   2135.000000,
   2140.000000,
   2145.000000,
   2150.000000,
   2155.000000,
   2160.000000,
   2165.000000,
   2170.000000,
   2175.000000,
   2180.000000,
   2185.000000,
   2190.000000,
   2195.000000,
   2200.000000,
   2205.000000,
   2210.000000,
   2215.000000,
   2220.000000,
   2225.000000,
   2230.000000,
   2235.000000,
   2240.000000,
   2245.000000,
   2250.000000,
   2255.000000,
   2260.000000,
   2265.000000,
   2270.000000,
   2275.000000,
   2280.000000,
   2285.000000,
   2290.000000,
   2295.000000,
   2300.000000,
   2305.000000,
   2310.000000,
   2315.000000,
   2320.000000,
   2325.000000,
   2330.000000,
   2335.000000,
   2340.000000,
   2345.000000,
   2350.000000,
   2355.000000,
   2360.000000,
   2365.000000,
   2370.000000,
   2375.000000,
   2380.000000,
   2385.000000,
   2390.000000,
   2395.000000,
   2400.000000,
   2405.000000,
   2410.000000,
   2415.000000,
   2420.000000,
   2425.000000,
   2430.000000,
   2435.000000,
   2440.000000,
   2445.000000,
   2450.000000,
   2455.000000,
   2460.000000,
   2465.000000,
   2470.000000,
   2475.000000,
   2480.000000,
   2485.000000,
   2490.000000,
   2495.000000,
   2500.000000,
   2505.000000,
   2510.000000,
   2515.000000,
   2520.000000,
   2525.000000,
   2530.000000,
   2535.000000,
   2540.000000,
   2545.000000,
   2550.000000,
   2555.000000,
   2560.000000,
   2565.000000,
   2570.000000,
   2575.000000,
   2580.000000,
   2585.000000,
   2590.000000,
   2595.000000,
   2600.000000,
   2605.000000,
   2610.000000,
   2615.000000,
   2620.000000,
   2625.000000,
   2630.000000,
   2635.000000,
   2640.000000,
   2645.000000,
   2650.000000,
   2655.000000,
   2660.000000,
   2665.000000,
   2670.000000,
   2675.000000,
   2680.000000,
   2685.000000,
   2690.000000,
   2695.000000,
   2700.000000,
   2705.000000,
   2710.000000,
   2715.000000,
   2720.000000,
   2725.000000,
   2730.000000,
   2735.000000,
   2740.000000,
   2745.000000,
   2750.000000,
   2755.000000,
   2760.000000,
   2765.000000,
   2770.000000,
   2775.000000,
   2780.000000,
   2785.000000,
   2790.000000,
   2795.000000,
   2800.000000,
   2805.000000,
   2810.000000,
   2815.000000,
   2820.000000,
   2825.000000,
   2830.000000,
   2835.000000,
   2840.000000,
   2845.000000,
   2850.000000,
   2855.000000,
   2860.000000,
   2865.000000,
   2870.000000,
   2875.000000,
   2880.000000,
   2885.000000,
   2890.000000,
   2895.000000,
   2900.000000,
   2905.000000,
   2910.000000,
   2915.000000,
   2920.000000,
   2925.000000,
   2930.000000,
   2935.000000,
   2940.000000,
   2945.000000,
   2950.000000,
   2955.000000,
   2960.000000,
   2965.000000,
   2970.000000,
   2975.000000,
   2980.000000,
   2985.000000,
   2990.000000,
   2995.000000,
   3000.000000,
   3005.000000,
   3010.000000,
   3015.000000,
   3020.000000,
   3025.000000,
   3030.000000,
   3035.000000,
   3040.000000,
   3045.000000,
   3050.000000,
   3055.000000,
   3060.000000,
   3065.000000,
   3070.000000,
   3075.000000,
   3080.000000,
   3085.000000,
   3090.000000,
   3095.000000,
   3100.000000,
   3105.000000,
   3110.000000,
   3115.000000,
   3120.000000,
   3125.000000,
   3130.000000,
   3135.000000,
   3140.000000,
   3145.000000,
   3150.000000,
   3155.000000,
   3160.000000,
   3165.000000,
   3170.000000,
   3175.000000,
   3180.000000,
   3185.000000,
   3190.000000,
   3195.000000,
   3200.000000,
   3205.000000,
   3210.000000,
   3215.000000,
   3220.000000,
   3225.000000,
   3230.000000,
   3235.000000,
   3240.000000,
   3245.000000,
   3250.000000,
   3255.000000,
   3260.000000,
   3265.000000,
   3270.000000,
   3275.000000,
   3280.000000,
   3285.000000,
   3290.000000,
   3295.000000,
   3300.000000,
   3305.000000,
   3310.000000,
   3315.000000,
   3320.000000,
   3325.000000,
   3330.000000,
   3335.000000,
   3340.000000,
   3345.000000,
   3350.000000,
   3355.000000,
   3360.000000,
   3365.000000,
   3370.000000,
   3375.000000,
   3380.000000,
   3385.000000,
   3390.000000,
   3395.000000,
   3400.000000,
   3405.000000,
   3410.000000,
   3415.000000,
   3420.000000,
   3425.000000,
   3430.000000,
   3435.000000,
   3440.000000,
   3445.000000,
   3450.000000,
   3455.000000,
   3460.000000,
   3465.000000,
   3470.000000,
   3475.000000,
   3480.000000,
   3485.000000,
   3490.000000,
   3495.000000,
   3500.000000,
   3505.000000,
   3510.000000,
   3515.000000,
   3520.000000,
   3525.000000,
   3530.000000,
   3535.000000,
   3540.000000,
   3545.000000,
   3550.000000,
   3555.000000,
   3560.000000,
   3565.000000,
   3570.000000,
   3575.000000,
   3580.000000,
   3585.000000,
   3590.000000,
   3595.000000,
   3600.000000,
   3605.000000,
   3610.000000,
   3615.000000,
   3620.000000,
   3625.000000,
   3630.000000,
   3635.000000,
   3640.000000,
   3645.000000,
   3650.000000,
   3655.000000,
   3660.000000,
   3665.000000,
   3670.000000,
   3675.000000,
   3680.000000,
   3685.000000,
   3690.000000,
   3695.000000,
   3700.000000,
   3705.000000,
   3710.000000,
   3715.000000,
   3720.000000,
   3725.000000,
   3730.000000,
   3735.000000,
   3740.000000,
   3745.000000,
   3750.000000,
   3755.000000,
   3760.000000,
   3765.000000,
   3770.000000,
   3775.000000,
   3780.000000,
   3785.000000,
   3790.000000,
   3795.000000,
   3800.000000,
   3805.000000,
   3810.000000,
   3815.000000,
   3820.000000,
   3825.000000,
   3830.000000,
   3835.000000,
   3840.000000,
   3845.000000,
   3850.000000,
   3855.000000,
   3860.000000,
   3865.000000,
   3870.000000,
   3875.000000,
   3880.000000,
   3885.000000,
   3890.000000,
   3895.000000,
   3900.000000,
   3905.000000,
   3910.000000,
   3915.000000,
   3920.000000,
   3925.000000,
   3930.000000,
   3935.000000,
   3940.000000,
   3945.000000,
   3950.000000,
   3955.000000,
   3960.000000,
   3965.000000,
   3970.000000,
   3975.000000,
   3980.000000,
   3985.000000,
   3990.000000,
   3995.000000,
   4000.000000,
   4005.000000,
   4010.000000,
   4015.000000,
   4020.000000,
   4025.000000,
   4030.000000,
   4035.000000,
   4040.000000,
   4045.000000,
   4050.000000,
   4055.000000,
   4060.000000,
   4065.000000,
   4070.000000,
   4075.000000,
   4080.000000,
   4085.000000,
   4090.000000,
   4095.000000,
   4100.000000,
   4105.000000,
   4110.000000,
   4115.000000,
   4120.000000,
   4125.000000,
   4130.000000,
   4135.000000,
   4140.000000,
   4145.000000,
   4150.000000,
   4155.000000,
   4160.000000,
   4165.000000,
   4170.000000,
   4175.000000,
   4180.000000,
   4185.000000,
   4190.000000,
   4195.000000,
   4200.000000,
   4205.000000,
   4210.000000,
   4215.000000,
   4220.000000,
   4225.000000,
   4230.000000,
   4235.000000,
   4240.000000,
   4245.000000,
   4250.000000,
   4255.000000,
   4260.000000,
   4265.000000,
   4270.000000,
   4275.000000,
   4280.000000,
   4285.000000,
   4290.000000,
   4295.000000,
   4300.000000,
   4305.000000,
   4310.000000,
   4315.000000,
   4320.000000,
   4325.000000,
   4330.000000,
   4335.000000,
   4340.000000,
   4345.000000,
   4350.000000,
   4355.000000,
   4360.000000,
   4365.000000,
   4370.000000,
   4375.000000,
   4380.000000,
   4385.000000,
   4390.000000,
   4395.000000,
   4400.000000,
   4405.000000,
   4410.000000,
   4415.000000,
   4420.000000,
   4425.000000,
   4430.000000,
   4435.000000,
   4440.000000,
   4445.000000,
   4450.000000,
   4455.000000,
   4460.000000,
   4465.000000,
   4470.000000,
   4475.000000,
   4480.000000,
   4485.000000,
   4490.000000,
   4495.000000,
   4500.000000,
   4505.000000,
   4510.000000,
   4515.000000,
   4520.000000,
   4525.000000,
   4530.000000,
   4535.000000,
   4540.000000,
   4545.000000,
   4550.000000,
   4555.000000,
   4560.000000,
   4565.000000,
   4570.000000,
   4575.000000,
   4580.000000,
   4585.000000,
   4590.000000,
   4595.000000,
   4600.000000,
   4605.000000,
   4610.000000,
   4615.000000,
   4620.000000,
   4625.000000,
   4630.000000,
   4635.000000,
   4640.000000,
   4645.000000,
   4650.000000,
   4655.000000,
   4660.000000,
   4665.000000,
   4670.000000,
   4675.000000,
   4680.000000,
   4685.000000,
   4690.000000,
   4695.000000,
   4700.000000,
   4705.000000,
   4710.000000,
   4715.000000,
   4720.000000,
   4725.000000,
   4730.000000,
   4735.000000,
   4740.000000,
   4745.000000,
   4750.000000,
   4755.000000,
   4760.000000,
   4765.000000,
   4770.000000,
   4775.000000,
   4780.000000,
   4785.000000,
   4790.000000,
   4795.000000,
   4800.000000,
   4805.000000,
   4810.000000,
   4815.000000,
   4820.000000,
   4825.000000,
   4830.000000,
   4835.000000,
   4840.000000,
   4845.000000,
   4850.000000,
   4855.000000,
   4860.000000,
   4865.000000,
   4870.000000,
   4875.000000,
   4880.000000,
   4885.000000,
   4890.000000,
   4895.000000,
   4900.000000,
   4905.000000,
   4910.000000,
   4915.000000,
   4920.000000,
   4925.000000,
   4930.000000,
   4935.000000,
   4940.000000,
   4945.000000,
   4950.000000,
   4955.000000,
   4960.000000,
   4965.000000,
   4970.000000,
   4975.000000,
   4980.000000,
   4985.000000,
   4990.000000,
   4995.000000,
   5000.000000,
   5005.000000,
   5010.000000,
   5015.000000,
   5020.000000,
   5025.000000,
   5030.000000,
   5035.000000,
   5040.000000,
   5045.000000,
   5050.000000,
   5055.000000,
   5060.000000,
   5065.000000,
   5070.000000,
   5075.000000,
   5080.000000,
   5085.000000,
   5090.000000,
   5095.000000,
   5100.000000,
   5105.000000,
   5110.000000,
   5115.000000,
   5120.000000,
   5125.000000,
   5130.000000,
   5135.000000,
   5140.000000,
   5145.000000,
   5150.000000,
   5155.000000,
   5160.000000,
   5165.000000,
   5170.000000,
   5175.000000,
   5180.000000,
   5185.000000,
   5190.000000,
   5195.000000,
   5200.000000,
   5205.000000,
   5210.000000,
   5215.000000,
   5220.000000,
   5225.000000,
   5230.000000,
   5235.000000,
   5240.000000,
   5245.000000,
   5250.000000,
   5255.000000,
   5260.000000,
   5265.000000,
   5270.000000,
   5275.000000,
   5280.000000,
   5285.000000,
   5290.000000,
   5295.000000,
   5300.000000,
   5305.000000,
   5310.000000,
   5315.000000,
   5320.000000,
   5325.000000,
   5330.000000,
   5335.000000,
   5340.000000,
   5345.000000,
   5350.000000,
   5355.000000,
   5360.000000,
   5365.000000,
   5370.000000,
   5375.000000,
   5380.000000,
   5385.000000,
   5390.000000,
   5395.000000,
   5400.000000,
   5405.000000,
   5410.000000,
   5415.000000,
   5420.000000,
   5425.000000,
   5430.000000,
   5435.000000,
   5440.000000,
   5445.000000,
   5450.000000,
   5455.000000,
   5460.000000,
   5465.000000,
   5470.000000,
   5475.000000,
   5480.000000,
   5485.000000,
   5490.000000,
   5495.000000,
   5500.000000,
   5505.000000,
   5510.000000,
   5515.000000,
   5520.000000,
   5525.000000,
   5530.000000,
   5535.000000,
   5540.000000,
   5545.000000,
   5550.000000,
   5555.000000,
   5560.000000,
   5565.000000,
   5570.000000,
   5575.000000,
   5580.000000,
   5585.000000,
   5590.000000,
   5595.000000,
   5600.000000,
   5605.000000,
   5610.000000,
   5615.000000,
   5620.000000,
   5625.000000,
   5630.000000,
   5635.000000,
   5640.000000,
   5645.000000,
   5650.000000,
   5655.000000,
   5660.000000,
   5665.000000,
   5670.000000,
   5675.000000,
   5680.000000,
   5685.000000,
   5690.000000,
   5695.000000,
   5700.000000,
   5705.000000,
   5710.000000,
   5715.000000,
   5720.000000,
   5725.000000,
   5730.000000,
   5735.000000,
   5740.000000,
   5745.000000,
   5750.000000,
   5755.000000,
   5760.000000,
   5765.000000,
   5770.000000,
   5775.000000,
   5780.000000,
   5785.000000,
   5790.000000,
   5795.000000,
   5800.000000,
   5805.000000,
   5810.000000,
   5815.000000,
   5820.000000,
   5825.000000,
   5830.000000,
   5835.000000,
   5840.000000,
   5845.000000,
   5850.000000,
   5855.000000,
   5860.000000,
   5865.000000,
   5870.000000,
   5875.000000,
   5880.000000,
   5885.000000,
   5890.000000,
   5895.000000,
   5900.000000,
   5905.000000,
   5910.000000,
   5915.000000,
   5920.000000,
   5925.000000,
   5930.000000,
   5935.000000,
   5940.000000,
   5945.000000,
   5950.000000,
   5955.000000,
   5960.000000,
   5965.000000,
   5970.000000,
   5975.000000,
   5980.000000,
   5985.000000,
   5990.000000,
   5995.000000,
   6000.000000,
   6005.000000,
   6010.000000,
   6015.000000,
   6020.000000,
   6025.000000,
   6030.000000,
   6035.000000,
   6040.000000,
   6045.000000,
   6050.000000,
   6055.000000,
   6060.000000,
   6065.000000,
   6070.000000,
   6075.000000,
   6080.000000,
   6085.000000,
   6090.000000,
   6095.000000,
   6100.000000,
   6105.000000,
   6110.000000,
   6115.000000,
   6120.000000,
   6125.000000,
   6130.000000,
   6135.000000,
   6140.000000,
   6145.000000,
   6150.000000,
   6155.000000,
   6160.000000,
   6165.000000,
   6170.000000,
   6175.000000,
   6180.000000,
   6185.000000,
   6190.000000,
   6195.000000,
   6200.000000,
   6205.000000,
   6210.000000,
   6215.000000,
   6220.000000,
   6225.000000,
   6230.000000,
   6235.000000,
   6240.000000,
   6245.000000,
   6250.000000,
   6255.000000,
   6260.000000,
   6265.000000,
   6270.000000,
   6275.000000,
   6280.000000,
   6285.000000,
   6290.000000,
   6295.000000,
   6300.000000,
   6305.000000,
   6310.000000,
   6315.000000,
   6320.000000,
   6325.000000,
   6330.000000,
   6335.000000,
   6340.000000,
   6345.000000,
   6350.000000,
   6355.000000,
   6360.000000,
   6365.000000,
   6370.000000,
   6375.000000,
   6380.000000,
   6385.000000,
   6390.000000,
   6395.000000,
   6400.000000,
   6405.000000,
   6410.000000,
   6415.000000,
   6420.000000,
   6425.000000,
   6430.000000,
   6435.000000,
   6440.000000,
   6445.000000,
   6450.000000,
   6455.000000,
   6460.000000,
   6465.000000,
   6470.000000,
   6475.000000,
   6480.000000,
   6485.000000,
   6490.000000,
   6495.000000,
   6500.000000,
   6505.000000,
   6510.000000,
   6515.000000,
   6520.000000,
   6525.000000,
   6530.000000,
   6535.000000,
   6540.000000,
   6545.000000,
   6550.000000,
   6555.000000,
   6560.000000,
   6565.000000,
   6570.000000,
   6575.000000,
   6580.000000,
   6585.000000,
   6590.000000,
   6595.000000,
   6600.000000,
   6605.000000,
   6610.000000,
   6615.000000,
   6620.000000,
   6625.000000,
   6630.000000,
   6635.000000,
   6640.000000,
   6645.000000,
   6650.000000,
   6655.000000,
   6660.000000,
   6665.000000,
   6670.000000,
   6675.000000,
   6680.000000,
   6685.000000,
   6690.000000,
   6695.000000,
   6700.000000,
   6705.000000,
   6710.000000,
   6715.000000,
   6720.000000,
   6725.000000,
   6730.000000,
   6735.000000,
   6740.000000,
   6745.000000,
   6750.000000,
   6755.000000,
   6760.000000,
   6765.000000,
   6770.000000,
   6775.000000,
   6780.000000,
   6785.000000,
   6790.000000,
   6795.000000,
   6800.000000,
   6805.000000,
   6810.000000,
   6815.000000,
   6820.000000,
   6825.000000,
   6830.000000,
   6835.000000,
   6840.000000,
   6845.000000,
   6850.000000,
   6855.000000,
   6860.000000,
   6865.000000,
   6870.000000,
   6875.000000,
   6880.000000,
   6885.000000,
   6890.000000,
   6895.000000,
   6900.000000,
   6905.000000,
   6910.000000,
   6915.000000,
   6920.000000,
   6925.000000,
   6930.000000,
   6935.000000,
   6940.000000,
   6945.000000,
   6950.000000,
   6955.000000,
   6960.000000,
   6965.000000,
   6970.000000,
   6975.000000,
   6980.000000,
   6985.000000,
   6990.000000,
   6995.000000,
   7000.000000,
   7005.000000,
   7010.000000,
   7015.000000,
   7020.000000,
   7025.000000,
   7030.000000,
   7035.000000,
   7040.000000,
   7045.000000,
   7050.000000,
   7055.000000,
   7060.000000,
   7065.000000,
   7070.000000,
   7075.000000,
   7080.000000,
   7085.000000,
   7090.000000,
   7095.000000,
   7100.000000,
   7105.000000,
   7110.000000,
   7115.000000,
   7120.000000,
   7125.000000,
   7130.000000,
   7135.000000,
   7140.000000,
   7145.000000,
   7150.000000,
   7155.000000,
   7160.000000,
   7165.000000,
   7170.000000,
   7175.000000,
   7180.000000,
   7185.000000,
   7190.000000,
   7195.000000,
   7200.000000,
   7205.000000,
   7210.000000,
   7215.000000,
   7220.000000,
   7225.000000,
   7230.000000,
   7235.000000,
   7240.000000,
   7245.000000,
   7250.000000,
   7255.000000,
   7260.000000,
   7265.000000,
   7270.000000,
   7275.000000,
   7280.000000,
   7285.000000,
   7290.000000,
   7295.000000,
   7300.000000,
   7305.000000,
   7310.000000,
   7315.000000,
   7320.000000,
   7325.000000,
   7330.000000,
   7335.000000,
   7340.000000,
   7345.000000,
   7350.000000,
   7355.000000,
   7360.000000,
   7365.000000,
   7370.000000,
   7375.000000,
   7380.000000,
   7385.000000,
   7390.000000,
   7395.000000,
   7400.000000,
   7405.000000,
   7410.000000,
   7415.000000,
   7420.000000,
   7425.000000,
   7430.000000,
   7435.000000,
   7440.000000,
   7445.000000,
   7450.000000,
   7455.000000,
   7460.000000,
   7465.000000,
   7470.000000,
   7475.000000,
   7480.000000,
   7485.000000,
   7490.000000,
   7495.000000,
   7500.000000,
   7505.000000,
   7510.000000,
   7515.000000,
   7520.000000,
   7525.000000,
   7530.000000,
   7535.000000,
   7540.000000,
   7545.000000,
   7550.000000,
   7555.000000,
   7560.000000,
   7565.000000,
   7570.000000,
   7575.000000,
   7580.000000,
   7585.000000,
   7590.000000,
   7595.000000,
   7600.000000,
   7605.000000,
   7610.000000,
   7615.000000,
   7620.000000,
   7625.000000,
   7630.000000,
   7635.000000,
   7640.000000,
   7645.000000,
   7650.000000,
   7655.000000,
   7660.000000,
   7665.000000,
   7670.000000,
   7675.000000,
   7680.000000,
   7685.000000,
   7690.000000,
   7695.000000,
   7700.000000,
   7705.000000,
   7710.000000,
   7715.000000,
   7720.000000,
   7725.000000,
   7730.000000,
   7735.000000,
   7740.000000,
   7745.000000,
   7750.000000,
   7755.000000,
   7760.000000,
   7765.000000,
   7770.000000,
   7775.000000,
   7780.000000,
   7785.000000,
   7790.000000,
   7795.000000,
   7800.000000,
   7805.000000,
   7810.000000,
   7815.000000,
   7820.000000,
   7825.000000,
   7830.000000,
   7835.000000,
   7840.000000,
   7845.000000,
   7850.000000,
   7855.000000,
   7860.000000,
   7865.000000,
   7870.000000,
   7875.000000,
   7880.000000,
   7885.000000,
   7890.000000,
   7895.000000,
   7900.000000,
   7905.000000,
   7910.000000,
   7915.000000,
   7920.000000,
   7925.000000,
   7930.000000,
   7935.000000,
   7940.000000,
   7945.000000,
   7950.000000,
   7955.000000,
   7960.000000,
   7965.000000,
   7970.000000,
   7975.000000,
   7980.000000,
   7985.000000,
   7990.000000,
   7995.000000,
   8000.000000,
   8005.000000,
   8010.000000,
   8015.000000,
   8020.000000,
   8025.000000,
   8030.000000,
   8035.000000,
   8040.000000,
   8045.000000,
   8050.000000,
   8055.000000,
   8060.000000,
   8065.000000,
   8070.000000,
   8075.000000,
   8080.000000,
   8085.000000,
   8090.000000,
   8095.000000,
   8100.000000,
   8105.000000,
   8110.000000,
   8115.000000,
   8120.000000,
   8125.000000,
   8130.000000,
   8135.000000,
   8140.000000,
   8145.000000,
   8150.000000,
   8155.000000,
   8160.000000,
   8165.000000,
   8170.000000,
   8175.000000,
   8180.000000,
   8185.000000,
   8190.000000,
   8195.000000,
   8200.000000,
   8205.000000,
   8210.000000,
   8215.000000,
   8220.000000,
   8225.000000,
   8230.000000,
   8235.000000,
   8240.000000,
   8245.000000,
   8250.000000,
   8255.000000,
   8260.000000,
   8265.000000,
   8270.000000,
   8275.000000,
   8280.000000,
   8285.000000,
   8290.000000,
   8295.000000,
   8300.000000,
   8305.000000,
   8310.000000,
   8315.000000,
   8320.000000,
   8325.000000,
   8330.000000,
   8335.000000,
   8340.000000,
   8345.000000,
   8350.000000,
   8355.000000,
   8360.000000,
   8365.000000,
   8370.000000,
   8375.000000,
   8380.000000,
   8385.000000,
   8390.000000,
   8395.000000,
   8400.000000,
   8405.000000,
   8410.000000,
   8415.000000,
   8420.000000,
   8425.000000,
   8430.000000,
   8435.000000,
   8440.000000,
   8445.000000,
   8450.000000,
   8455.000000,
   8460.000000,
   8465.000000,
   8470.000000,
   8475.000000,
   8480.000000,
   8485.000000,
   8490.000000,
   8495.000000,
   8500.000000,
   8505.000000,
   8510.000000,
   8515.000000,
   8520.000000,
   8525.000000,
   8530.000000,
   8535.000000,
   8540.000000,
   8545.000000,
   8550.000000,
   8555.000000,
   8560.000000,
   8565.000000,
   8570.000000,
   8575.000000,
   8580.000000,
   8585.000000,
   8590.000000,
   8595.000000,
   8600.000000,
   8605.000000,
   8610.000000,
   8615.000000,
   8620.000000,
   8625.000000,
   8630.000000,
   8635.000000,
   8640.000000,
   8645.000000,
   8650.000000,
   8655.000000,
   8660.000000,
   8665.000000,
   8670.000000,
   8675.000000,
   8680.000000,
   8685.000000,
   8690.000000,
   8695.000000,
   8700.000000,
   8705.000000,
   8710.000000,
   8715.000000,
   8720.000000,
   8725.000000,
   8730.000000,
   8735.000000,
   8740.000000,
   8745.000000,
   8750.000000,
   8755.000000,
   8760.000000,
   8765.000000,
   8770.000000,
   8775.000000,
   8780.000000,
   8785.000000,
   8790.000000,
   8795.000000,
   8800.000000,
   8805.000000,
   8810.000000,
   8815.000000,
   8820.000000,
   8825.000000,
   8830.000000,
   8835.000000,
   8840.000000,
   8845.000000,
   8850.000000,
   8855.000000,
   8860.000000,
   8865.000000,
   8870.000000,
   8875.000000,
   8880.000000,
   8885.000000,
   8890.000000,
   8895.000000,
   8900.000000,
   8905.000000,
   8910.000000,
   8915.000000,
   8920.000000,
   8925.000000,
   8930.000000,
   8935.000000,
   8940.000000,
   8945.000000,
   8950.000000,
   8955.000000,
   8960.000000,
   8965.000000,
   8970.000000,
   8975.000000,
   8980.000000,
   8985.000000,
   8990.000000,
   8995.000000,
   9000.000000,
   9005.000000,
   9010.000000,
   9015.000000,
   9020.000000,
   9025.000000,
   9030.000000,
   9035.000000,
   9040.000000,
   9045.000000,
   9050.000000,
   9055.000000,
   9060.000000,
   9065.000000,
   9070.000000,
   9075.000000,
   9080.000000,
   9085.000000,
   9090.000000,
   9095.000000,
   9100.000000,
   9105.000000,
   9110.000000,
   9115.000000,
   9120.000000,
   9125.000000,
   9130.000000,
   9135.000000,
   9140.000000,
   9145.000000,
   9150.000000,
   9155.000000,
   9160.000000,
   9165.000000,
   9170.000000,
   9175.000000,
   9180.000000,
   9185.000000,
   9190.000000,
   9195.000000,
   9200.000000,
   9205.000000,
   9210.000000,
   9215.000000,
   9220.000000,
   9225.000000,
   9230.000000,
   9235.000000,
   9240.000000,
   9245.000000,
   9250.000000,
   9255.000000,
   9260.000000,
   9265.000000,
   9270.000000,
   9275.000000,
   9280.000000,
   9285.000000,
   9290.000000,
   9295.000000,
   9300.000000,
   9305.000000,
   9310.000000,
   9315.000000,
   9320.000000,
   9325.000000,
   9330.000000,
   9335.000000,
   9340.000000,
   9345.000000,
   9350.000000,
   9355.000000,
   9360.000000,
   9365.000000,
   9370.000000,
   9375.000000,
   9380.000000,
   9385.000000,
   9390.000000,
   9395.000000,
   9400.000000,
   9405.000000,
   9410.000000,
   9415.000000,
   9420.000000,
   9425.000000,
   9430.000000,
   9435.000000,
   9440.000000,
   9445.000000,
   9450.000000,
   9455.000000,
   9460.000000,
   9465.000000,
   9470.000000,
   9475.000000,
   9480.000000,
   9485.000000,
   9490.000000,
   9495.000000,
   9500.000000,
   9505.000000,
   9510.000000,
   9515.000000,
   9520.000000,
   9525.000000,
   9530.000000,
   9535.000000,
   9540.000000,
   9545.000000,
   9550.000000,
   9555.000000,
   9560.000000,
   9565.000000,
   9570.000000,
   9575.000000,
   9580.000000,
   9585.000000,
   9590.000000,
   9595.000000,
   9600.000000,
   9605.000000,
   9610.000000,
   9615.000000,
   9620.000000,
   9625.000000,
   9630.000000,
   9635.000000,
   9640.000000,
   9645.000000,
   9650.000000,
   9655.000000,
   9660.000000,
   9665.000000,
   9670.000000,
   9675.000000,
   9680.000000,
   9685.000000,
   9690.000000,
   9695.000000,
   9700.000000,
   9705.000000,
   9710.000000,
   9715.000000,
   9720.000000,
   9725.000000,
   9730.000000,
   9735.000000,
   9740.000000,
   9745.000000,
   9750.000000,
   9755.000000,
   9760.000000,
   9765.000000,
   9770.000000,
   9775.000000,
   9780.000000,
   9785.000000,
   9790.000000,
   9795.000000,
   9800.000000,
   9805.000000,
   9810.000000,
   9815.000000,
   9820.000000,
   9825.000000,
   9830.000000,
   9835.000000,
   9840.000000,
   9845.000000,
   9850.000000,
   9855.000000,
   9860.000000,
   9865.000000,
   9870.000000,
   9875.000000,
   9880.000000,
   9885.000000,
   9890.000000,
   9895.000000,
   9900.000000,
   9905.000000,
   9910.000000,
   9915.000000,
   9920.000000,
   9925.000000,
   9930.000000,
   9935.000000,
   9940.000000,
   9945.000000,
   9950.000000,
   9955.000000,
   9960.000000,
   9965.000000,
   9970.000000,
   9975.000000,
   9980.000000,
   9985.000000,
   9990.000000,
   9995.000000,
   10000.000000,
   10005.000000,
   10010.000000,
   10015.000000,
   10020.000000,
   10025.000000,
   10030.000000,
   10035.000000,
   10040.000000,
   10045.000000,
   10050.000000,
   10055.000000,
   10060.000000,
   10065.000000,
   10070.000000,
   10075.000000,
   10080.000000,
   10085.000000,
   10090.000000,
   10095.000000,
   10100.000000,
   10105.000000,
   10110.000000,
   10115.000000,
   10120.000000,
   10125.000000,
   10130.000000,
   10135.000000,
   10140.000000,
   10145.000000,
   10150.000000,
   10155.000000,
   10160.000000,
   10165.000000,
   10170.000000,
   10175.000000,
   10180.000000,
   10185.000000,
   10190.000000,
   10195.000000,
   10200.000000,
   10205.000000,
   10210.000000,
   10215.000000,
   10220.000000,
   10225.000000,
   10230.000000,
   10235.000000,
   10240.000000,
   10245.000000,
   10250.000000,
   10255.000000,
   10260.000000,
   10265.000000,
   10270.000000,
   10275.000000,
   10280.000000,
   10285.000000,
   10290.000000,
   10295.000000,
   10300.000000,
   10305.000000,
   10310.000000,
   10315.000000,
   10320.000000,
   10325.000000,
   10330.000000,
   10335.000000,
   10340.000000,
   10345.000000,
   10350.000000,
   10355.000000,
   10360.000000,
   10365.000000,
   10370.000000,
   10375.000000,
   10380.000000,
   10385.000000,
   10390.000000,
   10395.000000,
   10400.000000,
   10405.000000,
   10410.000000,
   10415.000000,
   10420.000000,
   10425.000000,
   10430.000000,
   10435.000000,
   10440.000000,
   10445.000000,
   10450.000000,
   10455.000000,
   10460.000000,
   10465.000000,
   10470.000000,
   10475.000000,
   10480.000000,
   10485.000000,
   10490.000000,
   10495.000000,
   10500.000000,
   10505.000000,
   10510.000000,
   10515.000000,
   10520.000000,
   10525.000000,
   10530.000000,
   10535.000000,
   10540.000000,
   10545.000000,
   10550.000000,
   10555.000000,
   10560.000000,
   10565.000000,
   10570.000000,
   10575.000000,
   10580.000000,
   10585.000000,
   10590.000000,
   10595.000000,
   10600.000000,
   10605.000000,
   10610.000000,
   10615.000000,
   10620.000000
};

static double _a5v_flux[] = {
   0.000000,
   0.010112,
   0.035476,
   0.000000,
   0.000000,
   0.000000,
   0.000000,
   0.000000,
   0.000000,
   0.000000,
   0.000000,
   0.001767,
   0.029337,
   0.044392,
   0.019819,
   0.007760,
   0.005219,
   0.004870,
   0.004600,
   0.000782,
   0.006129,
   0.006150,
   0.004974,
   0.004305,
   0.005035,
   0.004842,
   0.006096,
   0.004384,
   0.004738,
   0.001440,
   0.003983,
   0.003084,
   0.002804,
   0.003681,
   0.001503,
   0.001259,
   0.002836,
   0.002611,
   0.004889,
   0.005078,
   0.004925,
   0.008155,
   0.006243,
   0.001535,
   0.001862,
   0.007030,
   0.008658,
   0.004119,
   0.003104,
   0.004172,
   0.004213,
   0.005551,
   0.000185,
   0.001284,
   0.005920,
   0.007148,
   0.006368,
   0.007133,
   0.007230,
   0.009398,
   0.011723,
   0.010506,
   0.008776,
   0.009922,
   0.009787,
   0.009197,
   0.007739,
   0.012502,
   0.011960,
   0.014853,
   0.014664,
   0.013581,
   0.012138,
   0.014114,
   0.017457,
   0.018865,
   0.021896,
   0.029058,
   0.037799,
   0.048530,
   0.052848,
   0.055661,
   0.070154,
   0.084374,
   0.077362,
   0.101298,
   0.129886,
   0.130405,
   0.118892,
   0.113174,
   0.127537,
   0.134704,
   0.145274,
   0.156276,
   0.154464,
   0.163653,
   0.159630,
   0.181385,
   0.211569,
   0.229657,
   0.207432,
   0.170190,
   0.214272,
   0.256604,
   0.201546,
   0.224185,
   0.264055,
   0.272627,
   0.274305,
   0.271454,
   0.300772,
   0.346971,
   0.386861,
   0.415251,
   0.414083,
   0.422559,
   0.466747,
   0.467921,
   0.463205,
   0.484484,
   0.538499,
   0.575736,
   0.526849,
   0.491737,
   0.535064,
   0.599999,
   0.626271,
   0.573795,
   0.575837,
   0.680539,
   0.715476,
   0.669150,
   0.653244,
   0.674579,
   0.688930,
   0.690887,
   0.671984,
   0.624731,
   0.532140,
   0.504905,
   0.509707,
   0.533169,
   0.566599,
   0.594493,
   0.633111,
   0.642245,
   0.676764,
   0.689008,
   0.663292,
   0.617595,
   0.575150,
   0.607594,
   0.627012,
   0.671350,
   0.681233,
   0.601963,
   0.533840,
   0.566485,
   0.670541,
   0.707369,
   0.708627,
   0.692887,
   0.667588,
   0.667686,
   0.651047,
   0.682029,
   0.679248,
   0.686897,
   0.659822,
   0.619402,
   0.623085,
   0.644395,
   0.610335,
   0.608527,
   0.607278,
   0.614305,
   0.617175,
   0.626261,
   0.639940,
   0.641850,
   0.696646,
   0.715428,
   0.650878,
   0.647524,
   0.668823,
   0.681769,
   0.716492,
   0.741952,
   0.749978,
   0.730749,
   0.710472,
   0.692581,
   0.671304,
   0.659397,
   0.642535,
   0.686194,
   0.690718,
   0.585100,
   0.514737,
   0.540255,
   0.612948,
   0.620163,
   0.629078,
   0.604543,
   0.567451,
   0.536790,
   0.535045,
   0.580701,
   0.615626,
   0.630337,
   0.655744,
   0.658930,
   0.620033,
   0.553369,
   0.525046,
   0.522951,
   0.543051,
   0.546915,
   0.598702,
   0.585284,
   0.523130,
   0.502785,
   0.508325,
   0.496007,
   0.505610,
   0.510665,
   0.550551,
   0.555443,
   0.585447,
   0.587165,
   0.550786,
   0.495129,
   0.492722,
   0.520173,
   0.504818,
   0.499338,
   0.491241,
   0.468923,
   0.447094,
   0.414265,
   0.395155,
   0.423409,
   0.475135,
   0.429197,
   0.415906,
   0.455860,
   0.453002,
   0.414516,
   0.364036,
   0.388762,
   0.404585,
   0.397815,
   0.368462,
   0.351230,
   0.400677,
   0.469792,
   0.498451,
   0.486590,
   0.470138,
   0.485282,
   0.508675,
   0.488443,
   0.492037,
   0.504223,
   0.457793,
   0.439186,
   0.448356,
   0.452255,
   0.464744,
   0.441476,
   0.494864,
   0.553231,
   0.533038,
   0.500283,
   0.461763,
   0.416692,
   0.394034,
   0.396057,
   0.399360,
   0.396874,
   0.399533,
   0.418809,
   0.466380,
   0.472084,
   0.498573,
   0.553502,
   0.491729,
   0.478920,
   0.513981,
   0.534507,
   0.527310,
   0.484805,
   0.462165,
   0.438501,
   0.485421,
   0.532120,
   0.513855,
   0.494526,
   0.593381,
   0.668202,
   0.709052,
   0.700396,
   0.689920,
   0.633534,
   0.585806,
   0.598197,
   0.631150,
   0.628831,
   0.616880,
   0.582406,
   0.590581,
   0.608570,
   0.599201,
   0.557710,
   0.552061,
   0.556486,
   0.597036,
   0.639139,
   0.613020,
   0.536343,
   0.488181,
   0.480162,
   0.495104,
   0.536825,
   0.550577,
   0.554734,
   0.579966,
   0.546170,
   0.551156,
   0.481573,
   0.328659,
   0.304693,
   0.413016,
   0.568873,
   0.665152,
   0.703872,
   0.678579,
   0.672877,
   0.649048,
   0.604551,
   0.601413,
   0.592134,
   0.588374,
   0.635453,
   0.628134,
   0.630405,
   0.639483,
   0.646964,
   0.640215,
   0.627298,
   0.629729,
   0.654855,
   0.706480,
   0.724652,
   0.732838,
   0.693467,
   0.664171,
   0.670408,
   0.676403,
   0.704504,
   0.693170,
   0.683085,
   0.726553,
   0.752268,
   0.733245,
   0.715152,
   0.733119,
   0.727787,
   0.728056,
   0.770202,
   0.759999,
   0.715679,
   0.742422,
   0.757393,
   0.733284,
   0.702522,
   0.705597,
   0.713627,
   0.728026,
   0.735257,
   0.727944,
   0.728135,
   0.716145,
   0.697032,
   0.705283,
   0.724303,
   0.741181,
   0.754300,
   0.760239,
   0.755319,
   0.714564,
   0.712989,
   0.713815,
   0.737271,
   0.731722,
   0.728676,
   0.734064,
   0.740147,
   0.761946,
   0.797493,
   0.796677,
   0.781423,
   0.776577,
   0.795525,
   0.809603,
   0.802516,
   0.755511,
   0.745623,
   0.792941,
   0.786098,
   0.775437,
   0.779023,
   0.783532,
   0.768305,
   0.746014,
   0.733132,
   0.728020,
   0.726138,
   0.729441,
   0.740060,
   0.754306,
   0.766720,
   0.770577,
   0.759649,
   0.730962,
   0.689513,
   0.668929,
   0.695304,
   0.735969,
   0.753759,
   0.752261,
   0.743913,
   0.735793,
   0.732010,
   0.730141,
   0.727203,
   0.724503,
   0.723318,
   0.720510,
   0.714589,
   0.715061,
   0.728026,
   0.734968,
   0.719713,
   0.700087,
   0.696201,
   0.703332,
   0.711779,
   0.716794,
   0.716744,
   0.717533,
   0.724404,
   0.732433,
   0.735359,
   0.731749,
   0.722378,
   0.712030,
   0.705838,
   0.706335,
   0.713601,
   0.720508,
   0.720588,
   0.717231,
   0.715157,
   0.714581,
   0.714245,
   0.711535,
   0.705034,
   0.699488,
   0.699515,
   0.703060,
   0.707091,
   0.711340,
   0.715774,
   0.718536,
   0.718690,
   0.720822,
   0.728834,
   0.738383,
   0.743958,
   0.743614,
   0.748155,
   0.732717,
   0.715044,
   0.706238,
   0.720341,
   0.711868,
   0.702899,
   0.714773,
   0.740366,
   0.736644,
   0.719487,
   0.734367,
   0.722845,
   0.727543,
   0.760214,
   0.766988,
   0.773276,
   0.766523,
   0.752414,
   0.752659,
   0.777257,
   0.787016,
   0.791661,
   0.795639,
   0.790046,
   0.781406,
   0.779312,
   0.786697,
   0.774531,
   0.788026,
   0.770443,
   0.791413,
   0.837548,
   0.829501,
   0.868275,
   0.886229,
   0.821742,
   0.943994,
   0.932475,
   0.859075,
   1.030762,
   1.124718,
   1.050091,
   0.915674,
   1.086725,
   1.343383,
   1.383307,
   1.235686,
   0.989454,
   0.992228,
   1.259302,
   1.449170,
   1.504849,
   1.497401,
   1.351986,
   1.098432,
   0.924558,
   1.160705,
   1.473378,
   1.648823,
   1.745990,
   1.824813,
   1.882723,
   1.815910,
   1.641375,
   1.423672,
   1.113214,
   0.994775,
   1.247030,
   1.493909,
   1.681947,
   1.851618,
   1.898150,
   1.895200,
   1.821252,
   1.449227,
   1.399514,
   1.764507,
   1.836023,
   1.770453,
   1.609942,
   1.362005,
   0.975463,
   0.854487,
   1.173087,
   1.460023,
   1.638019,
   1.787081,
   1.879975,
   1.923907,
   1.934612,
   1.972015,
   2.010712,
   2.034989,
   2.009475,
   1.989225,
   2.002901,
   2.022012,
   1.990518,
   2.011727,
   1.985016,
   1.927083,
   1.879596,
   1.834253,
   1.763525,
   1.708787,
   1.620472,
   1.457553,
   1.187034,
   0.942102,
   1.067371,
   1.336968,
   1.520460,
   1.648090,
   1.713694,
   1.763511,
   1.827951,
   1.867337,
   1.874365,
   1.882913,
   1.846735,
   1.868352,
   1.896084,
   1.865373,
   1.826388,
   1.832668,
   1.853942,
   1.874332,
   1.852948,
   1.818524,
   1.850040,
   1.855378,
   1.837569,
   1.821018,
   1.770562,
   1.781030,
   1.788360,
   1.798473,
   1.770734,
   1.749433,
   1.772878,
   1.788941,
   1.805159,
   1.760168,
   1.750431,
   1.791339,
   1.758116,
   1.717994,
   1.686703,
   1.627077,
   1.607654,
   1.585498,
   1.553586,
   1.514771,
   1.424621,
   1.288781,
   1.061049,
   0.860435,
   0.989333,
   1.188723,
   1.340277,
   1.477284,
   1.549220,
   1.574260,
   1.610295,
   1.627641,
   1.606036,
   1.645384,
   1.646491,
   1.634255,
   1.635607,
   1.649515,
   1.620619,
   1.630793,
   1.639211,
   1.637794,
   1.647020,
   1.647714,
   1.625704,
   1.635208,
   1.621848,
   1.632115,
   1.617414,
   1.610367,
   1.608955,
   1.548678,
   1.557270,
   1.574079,
   1.597045,
   1.591182,
   1.607551,
   1.620242,
   1.601874,
   1.568501,
   1.556972,
   1.540510,
   1.561820,
   1.575664,
   1.564658,
   1.516588,
   1.521982,
   1.535717,
   1.538776,
   1.542100,
   1.537739,
   1.515071,
   1.508062,
   1.524309,
   1.526980,
   1.533995,
   1.535977,
   1.532485,
   1.515598,
   1.509622,
   1.511925,
   1.488963,
   1.491107,
   1.511149,
   1.498264,
   1.486630,
   1.491126,
   1.490156,
   1.468532,
   1.470935,
   1.484875,
   1.481776,
   1.495405,
   1.475877,
   1.471663,
   1.443183,
   1.434273,
   1.446363,
   1.434207,
   1.432466,
   1.435223,
   1.417707,
   1.402517,
   1.399155,
   1.413026,
   1.416623,
   1.405581,
   1.391040,
   1.378525,
   1.379101,
   1.384816,
   1.377140,
   1.363034,
   1.356831,
   1.358875,
   1.335389,
   1.355364,
   1.339227,
   1.318479,
   1.307000,
   1.282208,
   1.273696,
   1.257907,
   1.210374,
   1.122519,
   0.998284,
   0.856546,
   0.730202,
   0.757289,
   0.868901,
   0.984595,
   1.090714,
   1.167063,
   1.208373,
   1.241638,
   1.280858,
   1.311447,
   1.306141,
   1.294255,
   1.267041,
   1.277287,
   1.306125,
   1.299915,
   1.315171,
   1.333473,
   1.328196,
   1.299736,
   1.279901,
   1.298314,
   1.303382,
   1.308027,
   1.295714,
   1.289662,
   1.293547,
   1.278683,
   1.279056,
   1.267196,
   1.257689,
   1.247830,
   1.229221,
   1.245324,
   1.248976,
   1.254581,
   1.244249,
   1.237003,
   1.234990,
   1.234663,
   1.255445,
   1.260818,
   1.260425,
   1.255062,
   1.250396,
   1.244905,
   1.235537,
   1.229834,
   1.228711,
   1.227339,
   1.225474,
   1.226436,
   1.229517,
   1.224301,
   1.214718,
   1.215132,
   1.205850,
   1.210114,
   1.212837,
   1.209088,
   1.192156,
   1.159366,
   1.131923,
   1.144526,
   1.145599,
   1.137533,
   1.145820,
   1.144893,
   1.151613,
   1.143806,
   1.149630,
   1.158361,
   1.156814,
   1.140306,
   1.119511,
   1.125320,
   1.136631,
   1.149285,
   1.146057,
   1.134036,
   1.118339,
   1.087572,
   1.073303,
   1.081827,
   1.099681,
   1.116346,
   1.125022,
   1.125745,
   1.112418,
   1.100752,
   1.093653,
   1.085186,
   1.090034,
   1.090728,
   1.088114,
   1.086746,
   1.080667,
   1.091059,
   1.085871,
   1.085141,
   1.075588,
   1.060699,
   1.060756,
   1.070215,
   1.076001,
   1.072604,
   1.071891,
   1.072043,
   1.065391,
   1.059464,
   1.064296,
   1.072664,
   1.070007,
   1.064134,
   1.061049,
   1.061281,
   1.054807,
   1.040793,
   1.048118,
   1.047760,
   1.050138,
   1.037900,
   1.026730,
   1.027466,
   1.029181,
   1.038109,
   1.039850,
   1.035936,
   1.029904,
   1.015370,
   1.012587,
   1.018188,
   1.024679,
   1.018276,
   1.013942,
   1.000005,
   0.992994,
   1.002182,
   1.020404,
   1.016685,
   1.008189,
   1.006593,
   1.004292,
   0.999020,
   0.991342,
   0.980822,
   0.972951,
   0.971359,
   0.970222,
   0.965264,
   0.963473,
   0.959335,
   0.949884,
   0.955438,
   0.959336,
   0.963351,
   0.967293,
   0.962111,
   0.957967,
   0.947348,
   0.940532,
   0.940900,
   0.947240,
   0.954270,
   0.946739,
   0.941479,
   0.937734,
   0.933955,
   0.925900,
   0.921537,
   0.920176,
   0.920448,
   0.920205,
   0.926720,
   0.924601,
   0.920002,
   0.916826,
   0.911793,
   0.918184,
   0.911167,
   0.905681,
   0.901511,
   0.893374,
   0.886966,
   0.892515,
   0.896204,
   0.894192,
   0.884161,
   0.888103,
   0.893782,
   0.890725,
   0.890323,
   0.896207,
   0.902780,
   0.897926,
   0.894476,
   0.887762,
   0.879555,
   0.882336,
   0.882397,
   0.882653,
   0.874496,
   0.875283,
   0.859686,
   0.846118,
   0.834226,
   0.820027,
   0.823500,
   0.836927,
   0.836302,
   0.836761,
   0.832769,
   0.831156,
   0.831351,
   0.834779,
   0.839275,
   0.830127,
   0.821173,
   0.817722,
   0.819390,
   0.821378,
   0.823308,
   0.816948,
   0.818003,
   0.819242,
   0.809964,
   0.809040,
   0.809799,
   0.807166,
   0.799620,
   0.794678,
   0.789760,
   0.790704,
   0.798498,
   0.793710,
   0.790628,
   0.793198,
   0.789809,
   0.789083,
   0.788334,
   0.791044,
   0.787863,
   0.785839,
   0.778388,
   0.774638,
   0.774054,
   0.770385,
   0.769875,
   0.765296,
   0.764287,
   0.770513,
   0.769573,
   0.760601,
   0.753087,
   0.750813,
   0.746198,
   0.740207,
   0.740918,
   0.745500,
   0.744052,
   0.740654,
   0.743308,
   0.737733,
   0.741267,
   0.747425,
   0.742220,
   0.740215,
   0.740021,
   0.742071,
   0.741384,
   0.740159,
   0.736055,
   0.735019,
   0.733322,
   0.724046,
   0.720273,
   0.718369,
   0.717772,
   0.719768,
   0.725595,
   0.722764,
   0.714641,
   0.714380,
   0.705698,
   0.693184,
   0.700322,
   0.703703,
   0.705912,
   0.703097,
   0.702661,
   0.704309,
   0.699221,
   0.700137,
   0.701407,
   0.700079,
   0.699093,
   0.696667,
   0.692668,
   0.692974,
   0.699511,
   0.697571,
   0.691511,
   0.684130,
   0.683151,
   0.681042,
   0.682199,
   0.683973,
   0.687031,
   0.686600,
   0.685154,
   0.679095,
   0.670386,
   0.666859,
   0.668739,
   0.667041,
   0.667499,
   0.668261,
   0.670465,
   0.664738,
   0.654357,
   0.653673,
   0.653233,
   0.655199,
   0.654367,
   0.653806,
   0.649737,
   0.642649,
   0.630319,
   0.637310,
   0.642806,
   0.639231,
   0.630404,
   0.629543,
   0.628834,
   0.619271,
   0.608376,
   0.596827,
   0.573092,
   0.537783,
   0.488401,
   0.422566,
   0.419721,
   0.480456,
   0.525287,
   0.558373,
   0.579478,
   0.593256,
   0.604904,
   0.613373,
   0.616067,
   0.617489,
   0.619764,
   0.623600,
   0.622566,
   0.622501,
   0.620274,
   0.618704,
   0.618827,
   0.618339,
   0.615435,
   0.614241,
   0.612826,
   0.611105,
   0.608152,
   0.607157,
   0.609619,
   0.611048,
   0.610370,
   0.610322,
   0.610150,
   0.610758,
   0.605944,
   0.603146,
   0.600157,
   0.597800,
   0.600734,
   0.602451,
   0.600725,
   0.598445,
   0.594431,
   0.593684,
   0.594086,
   0.591749,
   0.593756,
   0.595114,
   0.591586,
   0.591922,
   0.592987,
   0.594583,
   0.595402,
   0.595391,
   0.595446,
   0.591389,
   0.586780,
   0.581491,
   0.579413,
   0.586007,
   0.587767,
   0.587971,
   0.584908,
   0.579320,
   0.573999,
   0.571738,
   0.573184,
   0.576449,
   0.578400,
   0.576706,
   0.571301,
   0.564215,
   0.558172,
   0.555111,
   0.555465,
   0.558307,
   0.562087,
   0.565406,
   0.567551,
   0.568567,
   0.568825,
   0.568465,
   0.567156,
   0.564449,
   0.560715,
   0.557251,
   0.553110,
   0.551037,
   0.551092,
   0.549373,
   0.547174,
   0.541044,
   0.534440,
   0.534970,
   0.535926,
   0.538435,
   0.537899,
   0.536644,
   0.535311,
   0.534821,
   0.536892,
   0.539950,
   0.539744,
   0.537524,
   0.533812,
   0.535580,
   0.535538,
   0.532335,
   0.532358,
   0.526514,
   0.523234,
   0.520974,
   0.521009,
   0.520238,
   0.523149,
   0.523258,
   0.521640,
   0.521528,
   0.521185,
   0.524169,
   0.526380,
   0.529612,
   0.532603,
   0.529114,
   0.520269,
   0.512847,
   0.503903,
   0.497024,
   0.485342,
   0.483711,
   0.485060,
   0.481241,
   0.482918,
   0.494868,
   0.503274,
   0.505275,
   0.503613,
   0.502572,
   0.492556,
   0.488113,
   0.486000,
   0.484049,
   0.483236,
   0.487080,
   0.486660,
   0.486695,
   0.480004,
   0.484190,
   0.487726,
   0.483869,
   0.487574,
   0.489053,
   0.483120,
   0.478479,
   0.480865,
   0.481206,
   0.486612,
   0.485652,
   0.483940,
   0.482854,
   0.477867,
   0.476947,
   0.479698,
   0.480487,
   0.478655,
   0.477218,
   0.474505,
   0.473858,
   0.470224,
   0.468148,
   0.465181,
   0.463896,
   0.459813,
   0.454811,
   0.458018,
   0.462659,
   0.477515,
   0.480175,
   0.478142,
   0.471134,
   0.464087,
   0.463140,
   0.465906,
   0.466790,
   0.468826,
   0.472409,
   0.472608,
   0.472736,
   0.470511,
   0.466130,
   0.460951,
   0.458579,
   0.457936,
   0.454567,
   0.453764,
   0.453074,
   0.450661,
   0.446686,
   0.442589,
   0.442171,
   0.443794,
   0.449063,
   0.448398,
   0.447732,
   0.447067,
   0.446401,
   0.445736,
   0.445070,
   0.444405,
   0.443739,
   0.443074,
   0.442409,
   0.441743,
   0.441078,
   0.440412,
   0.439746,
   0.439081,
   0.438415,
   0.437750,
   0.437084,
   0.436419,
   0.435754,
   0.435088,
   0.434423,
   0.433757,
   0.433092,
   0.432426,
   0.431761,
   0.431095,
   0.430430,
   0.429764,
   0.429099,
   0.428433,
   0.427768,
   0.427102,
   0.426437,
   0.425771,
   0.425106,
   0.424143,
   0.426595,
   0.429951,
   0.432665,
   0.432438,
   0.424903,
   0.414380,
   0.398708,
   0.389423,
   0.398075,
   0.405164,
   0.413296,
   0.418305,
   0.419467,
   0.414705,
   0.409694,
   0.405821,
   0.405271,
   0.406328,
   0.404572,
   0.403196,
   0.402479,
   0.402988,
   0.406423,
   0.410627,
   0.413871,
   0.411832,
   0.406298,
   0.400542,
   0.398149,
   0.400331,
   0.399704,
   0.396336,
   0.391398,
   0.387894,
   0.384940,
   0.384226,
   0.388726,
   0.394165,
   0.396043,
   0.396798,
   0.397301,
   0.393925,
   0.392737,
   0.390204,
   0.386292,
   0.387503,
   0.389226,
   0.391901,
   0.392467,
   0.390567,
   0.387253,
   0.382176,
   0.379086,
   0.379708,
   0.383871,
   0.384216,
   0.383190,
   0.382197,
   0.381118,
   0.380607,
   0.380272,
   0.378203,
   0.378155,
   0.378407,
   0.377186,
   0.377170,
   0.374676,
   0.372887,
   0.371592,
   0.370225,
   0.369734,
   0.370171,
   0.369300,
   0.369297,
   0.368413,
   0.368206,
   0.367725,
   0.368951,
   0.369380,
   0.367781,
   0.367186,
   0.364172,
   0.362099,
   0.357799,
   0.354240,
   0.350469,
   0.351481,
   0.350591,
   0.346264,
   0.348204,
   0.347708,
   0.346398,
   0.348218,
   0.351211,
   0.352505,
   0.349487,
   0.348096,
   0.342935,
   0.336653,
   0.342294,
   0.347018,
   0.346610,
   0.346629,
   0.345569,
   0.345200,
   0.345378,
   0.344795,
   0.340846,
   0.340411,
   0.339849,
   0.338866,
   0.338935,
   0.338655,
   0.339125,
   0.339234,
   0.337835,
   0.336317,
   0.335642,
   0.333831,
   0.331392,
   0.332956,
   0.333618,
   0.334456,
   0.334545,
   0.333838,
   0.333536,
   0.333783,
   0.333484,
   0.333710,
   0.333971,
   0.335651,
   0.338652,
   0.338887,
   0.337436,
   0.334790,
   0.332550,
   0.330140,
   0.329665,
   0.328294,
   0.326334,
   0.324807,
   0.322241,
   0.321299,
   0.322937,
   0.321188,
   0.320243,
   0.320020,
   0.324615,
   0.327651,
   0.328454,
   0.327604,
   0.319775,
   0.313657,
   0.316995,
   0.319943,
   0.320935,
   0.322646,
   0.321892,
   0.320441,
   0.317428,
   0.306195,
   0.304226,
   0.315436,
   0.319959,
   0.323783,
   0.326131,
   0.326355,
   0.328135,
   0.326512,
   0.320955,
   0.315646,
   0.307900,
   0.305332,
   0.310556,
   0.315265,
   0.320188,
   0.324225,
   0.328378,
   0.330562,
   0.332462,
   0.329779,
   0.324443,
   0.316480,
   0.305437,
   0.291399,
   0.283911,
   0.293580,
   0.304142,
   0.311222,
   0.317531,
   0.323097,
   0.328534,
   0.332551,
   0.335980,
   0.335449,
   0.334382,
   0.331834,
   0.326590,
   0.319705,
   0.313121,
   0.302697,
   0.291637,
   0.283051,
   0.286840,
   0.295058,
   0.305391,
   0.313399,
   0.320819,
   0.325067,
   0.325633,
   0.323245,
   0.320849,
   0.320455,
   0.318317,
   0.317303,
   0.319069,
   0.317798,
   0.313394,
   0.308835,
   0.303835,
   0.298556,
   0.292351,
   0.286528,
   0.278755,
   0.268425,
   0.265380,
   0.272028,
   0.278528,
   0.283897,
   0.290511,
   0.298506,
   0.304563,
   0.308343,
   0.311706,
   0.311123,
   0.311170,
   0.311989,
   0.312087,
   0.312955,
   0.314670,
   0.316939,
   0.316124,
   0.312396,
   0.312095,
   0.314041,
   0.310166,
   0.307923,
   0.306201,
   0.301796,
   0.294858,
   0.283413,
   0.279769,
   0.272034,
   0.262097,
   0.253052,
   0.245109,
   0.251688,
   0.264379,
   0.277909,
   0.290012,
   0.296040,
   0.300412,
   0.301417,
   0.300214,
   0.296211,
   0.293551,
   0.292730,
   0.292184,
   0.291097,
   0.294634,
   0.290681,
   0.294194,
   0.296584,
   0.298517,
   0.298207,
   0.300018,
   0.299387,
   0.302521,
   0.299699,
   0.296778,
   0.298438,
   0.299888,
   0.295779,
   0.290096,
   0.289554,
   0.292087,
   0.291583,
   0.286811,
   0.289649,
   0.289378,
   0.287826,
   0.284289,
   0.280778,
   0.273752,
   0.265499,
   0.255296,
   0.246236,
   0.235489,
   0.229279,
   0.235320,
   0.245118,
   0.251948,
   0.260276,
   0.267141,
   0.272605,
   0.280979,
   0.286956,
   0.292401,
   0.293032,
   0.297640,
   0.297801,
   0.296919,
   0.292532,
   0.290596,
   0.289699,
   0.282196,
   0.278936,
   0.280285,
   0.285596,
   0.284301,
   0.278302,
   0.270476,
   0.281542,
   0.272408,
   0.270085,
   0.279778,
   0.271598,
   0.278672,
   0.279856,
   0.287190,
   0.294395,
   0.305062,
   0.297983,
   0.289533,
   0.279442,
   0.277979,
   0.271946,
   0.267637,
   0.259778,
   0.270679,
   0.261669,
   0.263312,
   0.272717,
   0.268790,
   0.262298,
   0.271476,
   0.277584,
   0.274504,
   0.269961,
   0.269949,
   0.274689,
   0.259049,
   0.250714,
   0.258511,
   0.267753,
   0.257643,
   0.246429,
   0.242203,
   0.236495,
   0.233434,
   0.221064,
   0.207011,
   0.215606,
   0.225720,
   0.233028,
   0.234706,
   0.242555,
   0.252101,
   0.248093,
   0.250039,
   0.247455,
   0.247837,
   0.250688,
   0.251352,
   0.251316,
   0.252356,
   0.247792,
   0.252458,
   0.248502,
   0.248502,
   0.247497,
   0.247825,
   0.250086,
   0.251085,
   0.249923,
   0.248318,
   0.252952,
   0.257855,
   0.255210,
   0.255347,
   0.253284,
   0.252174,
   0.248048,
   0.245471,
   0.252127,
   0.248130,
   0.247217,
   0.247778,
   0.248389,
   0.248271,
   0.245453,
   0.245583,
   0.243203,
   0.241570,
   0.242247,
   0.240700,
   0.244308,
   0.243205,
   0.244660,
   0.242116,
   0.237136,
   0.238421,
   0.239782,
   0.237656,
   0.237891,
   0.242053,
   0.240844,
   0.241173,
   0.242900,
   0.241058,
   0.244078,
   0.244059,
   0.242999,
   0.241045,
   0.240889,
   0.241345,
   0.236865,
   0.229282,
   0.229584,
   0.228320,
   0.231900,
   0.230190,
   0.230092,
   0.232907,
   0.235268,
   0.237449,
   0.231320,
   0.233118,
   0.230235,
   0.229695,
   0.231557,
   0.228452,
   0.227128,
   0.238562,
   0.228081,
   0.230461,
   0.224632,
   0.224103,
   0.222667,
   0.223377,
   0.226705,
   0.224207,
   0.222318,
   0.218718,
   0.215953,
   0.212679,
   0.212695,
   0.206278,
   0.201122,
   0.194981,
   0.189292,
   0.184911,
   0.182537,
   0.182913,
   0.189945,
   0.194673,
   0.195237,
   0.203349,
   0.209619,
   0.214674,
   0.214752,
   0.216117,
   0.222924,
   0.221644,
   0.219571,
   0.217371,
   0.215706,
   0.215091,
   0.215441,
   0.216519,
   0.218089,
   0.219865,
   0.221357,
   0.222023,
   0.221324,
   0.219003,
   0.215945,
   0.213320,
   0.212296,
   0.213623,
   0.216365,
   0.219164,
   0.220664,
   0.219869,
   0.217225,
   0.213541,
   0.209622,
   0.206204,
   0.203730,
   0.202571,
   0.203098,
   0.205415,
   0.208559,
   0.211301,
   0.212414,
   0.211086,
   0.208187,
   0.205005,
   0.202828,
   0.202586,
   0.203777,
   0.205540,
   0.207015,
   0.207567,
   0.207461,
   0.207190,
   0.207244,
   0.207968,
   0.209126,
   0.210334,
   0.211207,
   0.211451,
   0.211125,
   0.210379,
   0.209360,
   0.208219,
   0.207110,
   0.206193,
   0.205623,
   0.205485,
   0.205573,
   0.205608,
   0.205311,
   0.204478,
   0.203215,
   0.201702,
   0.200119,
   0.198640,
   0.197413,
   0.196579,
   0.196280,
   0.196590,
   0.197323,
   0.198227,
   0.199050,
   0.199560,
   0.199607,
   0.199061,
   0.197792,
   0.195786,
   0.193486,
   0.191451,
   0.190240,
   0.190235,
   0.191125,
   0.192422,
   0.193637,
   0.194410,
   0.194882,
   0.195321,
   0.195992,
   0.197034,
   0.198063,
   0.198567,
   0.198032,
   0.196195,
   0.193792,
   0.191806,
   0.191223,
   0.192677,
   0.195400,
   0.198274,
   0.200181,
   0.200275,
   0.198805,
   0.196292,
   0.193257
};

#endif
