#ifndef _B0I_H_
#define _B0I_H_

/* spectrum for b0i star           */
/* number of elements = 1895       */

static double _b0i_lambda[] = {
   1150.000000,
   1155.000000,
   1160.000000,
   1165.000000,
   1170.000000,
   1175.000000,
   1180.000000,
   1185.000000,
   1190.000000,
   1195.000000,
   1200.000000,
   1205.000000,
   1210.000000,
   1215.000000,
   1220.000000,
   1225.000000,
   1230.000000,
   1235.000000,
   1240.000000,
   1245.000000,
   1250.000000,
   1255.000000,
   1260.000000,
   1265.000000,
   1270.000000,
   1275.000000,
   1280.000000,
   1285.000000,
   1290.000000,
   1295.000000,
   1300.000000,
   1305.000000,
   1310.000000,
   1315.000000,
   1320.000000,
   1325.000000,
   1330.000000,
   1335.000000,
   1340.000000,
   1345.000000,
   1350.000000,
   1355.000000,
   1360.000000,
   1365.000000,
   1370.000000,
   1375.000000,
   1380.000000,
   1385.000000,
   1390.000000,
   1395.000000,
   1400.000000,
   1405.000000,
   1410.000000,
   1415.000000,
   1420.000000,
   1425.000000,
   1430.000000,
   1435.000000,
   1440.000000,
   1445.000000,
   1450.000000,
   1455.000000,
   1460.000000,
   1465.000000,
   1470.000000,
   1475.000000,
   1480.000000,
   1485.000000,
   1490.000000,
   1495.000000,
   1500.000000,
   1505.000000,
   1510.000000,
   1515.000000,
   1520.000000,
   1525.000000,
   1530.000000,
   1535.000000,
   1540.000000,
   1545.000000,
   1550.000000,
   1555.000000,
   1560.000000,
   1565.000000,
   1570.000000,
   1575.000000,
   1580.000000,
   1585.000000,
   1590.000000,
   1595.000000,
   1600.000000,
   1605.000000,
   1610.000000,
   1615.000000,
   1620.000000,
   1625.000000,
   1630.000000,
   1635.000000,
   1640.000000,
   1645.000000,
   1650.000000,
   1655.000000,
   1660.000000,
   1665.000000,
   1670.000000,
   1675.000000,
   1680.000000,
   1685.000000,
   1690.000000,
   1695.000000,
   1700.000000,
   1705.000000,
   1710.000000,
   1715.000000,
   1720.000000,
   1725.000000,
   1730.000000,
   1735.000000,
   1740.000000,
   1745.000000,
   1750.000000,
   1755.000000,
   1760.000000,
   1765.000000,
   1770.000000,
   1775.000000,
   1780.000000,
   1785.000000,
   1790.000000,
   1795.000000,
   1800.000000,
   1805.000000,
   1810.000000,
   1815.000000,
   1820.000000,
   1825.000000,
   1830.000000,
   1835.000000,
   1840.000000,
   1845.000000,
   1850.000000,
   1855.000000,
   1860.000000,
   1865.000000,
   1870.000000,
   1875.000000,
   1880.000000,
   1885.000000,
   1890.000000,
   1895.000000,
   1900.000000,
   1905.000000,
   1910.000000,
   1915.000000,
   1920.000000,
   1925.000000,
   1930.000000,
   1935.000000,
   1940.000000,
   1945.000000,
   1950.000000,
   1955.000000,
   1960.000000,
   1965.000000,
   1970.000000,
   1975.000000,
   1980.000000,
   1985.000000,
   1990.000000,
   1995.000000,
   2000.000000,
   2005.000000,
   2010.000000,
   2015.000000,
   2020.000000,
   2025.000000,
   2030.000000,
   2035.000000,
   2040.000000,
   2045.000000,
   2050.000000,
   2055.000000,
   2060.000000,
   2065.000000,
   2070.000000,
   2075.000000,
   2080.000000,
   2085.000000,
   2090.000000,
   2095.000000,
   2100.000000,
   2105.000000,
   2110.000000,
   2115.000000,
   2120.000000,
   2125.000000,
   2130.000000,
   2135.000000,
   2140.000000,
   2145.000000,
   2150.000000,
   2155.000000,
   2160.000000,
   2165.000000,
   2170.000000,
   2175.000000,
   2180.000000,
   2185.000000,
   2190.000000,
   2195.000000,
   2200.000000,
   2205.000000,
   2210.000000,
   2215.000000,
   2220.000000,
   2225.000000,
   2230.000000,
   2235.000000,
   2240.000000,
   2245.000000,
   2250.000000,
   2255.000000,
   2260.000000,
   2265.000000,
   2270.000000,
   2275.000000,
   2280.000000,
   2285.000000,
   2290.000000,
   2295.000000,
   2300.000000,
   2305.000000,
   2310.000000,
   2315.000000,
   2320.000000,
   2325.000000,
   2330.000000,
   2335.000000,
   2340.000000,
   2345.000000,
   2350.000000,
   2355.000000,
   2360.000000,
   2365.000000,
   2370.000000,
   2375.000000,
   2380.000000,
   2385.000000,
   2390.000000,
   2395.000000,
   2400.000000,
   2405.000000,
   2410.000000,
   2415.000000,
   2420.000000,
   2425.000000,
   2430.000000,
   2435.000000,
   2440.000000,
   2445.000000,
   2450.000000,
   2455.000000,
   2460.000000,
   2465.000000,
   2470.000000,
   2475.000000,
   2480.000000,
   2485.000000,
   2490.000000,
   2495.000000,
   2500.000000,
   2505.000000,
   2510.000000,
   2515.000000,
   2520.000000,
   2525.000000,
   2530.000000,
   2535.000000,
   2540.000000,
   2545.000000,
   2550.000000,
   2555.000000,
   2560.000000,
   2565.000000,
   2570.000000,
   2575.000000,
   2580.000000,
   2585.000000,
   2590.000000,
   2595.000000,
   2600.000000,
   2605.000000,
   2610.000000,
   2615.000000,
   2620.000000,
   2625.000000,
   2630.000000,
   2635.000000,
   2640.000000,
   2645.000000,
   2650.000000,
   2655.000000,
   2660.000000,
   2665.000000,
   2670.000000,
   2675.000000,
   2680.000000,
   2685.000000,
   2690.000000,
   2695.000000,
   2700.000000,
   2705.000000,
   2710.000000,
   2715.000000,
   2720.000000,
   2725.000000,
   2730.000000,
   2735.000000,
   2740.000000,
   2745.000000,
   2750.000000,
   2755.000000,
   2760.000000,
   2765.000000,
   2770.000000,
   2775.000000,
   2780.000000,
   2785.000000,
   2790.000000,
   2795.000000,
   2800.000000,
   2805.000000,
   2810.000000,
   2815.000000,
   2820.000000,
   2825.000000,
   2830.000000,
   2835.000000,
   2840.000000,
   2845.000000,
   2850.000000,
   2855.000000,
   2860.000000,
   2865.000000,
   2870.000000,
   2875.000000,
   2880.000000,
   2885.000000,
   2890.000000,
   2895.000000,
   2900.000000,
   2905.000000,
   2910.000000,
   2915.000000,
   2920.000000,
   2925.000000,
   2930.000000,
   2935.000000,
   2940.000000,
   2945.000000,
   2950.000000,
   2955.000000,
   2960.000000,
   2965.000000,
   2970.000000,
   2975.000000,
   2980.000000,
   2985.000000,
   2990.000000,
   2995.000000,
   3000.000000,
   3005.000000,
   3010.000000,
   3015.000000,
   3020.000000,
   3025.000000,
   3030.000000,
   3035.000000,
   3040.000000,
   3045.000000,
   3050.000000,
   3055.000000,
   3060.000000,
   3065.000000,
   3070.000000,
   3075.000000,
   3080.000000,
   3085.000000,
   3090.000000,
   3095.000000,
   3100.000000,
   3105.000000,
   3110.000000,
   3115.000000,
   3120.000000,
   3125.000000,
   3130.000000,
   3135.000000,
   3140.000000,
   3145.000000,
   3150.000000,
   3155.000000,
   3160.000000,
   3165.000000,
   3170.000000,
   3175.000000,
   3180.000000,
   3185.000000,
   3190.000000,
   3195.000000,
   3200.000000,
   3205.000000,
   3210.000000,
   3215.000000,
   3220.000000,
   3225.000000,
   3230.000000,
   3235.000000,
   3240.000000,
   3245.000000,
   3250.000000,
   3255.000000,
   3260.000000,
   3265.000000,
   3270.000000,
   3275.000000,
   3280.000000,
   3285.000000,
   3290.000000,
   3295.000000,
   3300.000000,
   3305.000000,
   3310.000000,
   3315.000000,
   3320.000000,
   3325.000000,
   3330.000000,
   3335.000000,
   3340.000000,
   3345.000000,
   3350.000000,
   3355.000000,
   3360.000000,
   3365.000000,
   3370.000000,
   3375.000000,
   3380.000000,
   3385.000000,
   3390.000000,
   3395.000000,
   3400.000000,
   3405.000000,
   3410.000000,
   3415.000000,
   3420.000000,
   3425.000000,
   3430.000000,
   3435.000000,
   3440.000000,
   3445.000000,
   3450.000000,
   3455.000000,
   3460.000000,
   3465.000000,
   3470.000000,
   3475.000000,
   3480.000000,
   3485.000000,
   3490.000000,
   3495.000000,
   3500.000000,
   3505.000000,
   3510.000000,
   3515.000000,
   3520.000000,
   3525.000000,
   3530.000000,
   3535.000000,
   3540.000000,
   3545.000000,
   3550.000000,
   3555.000000,
   3560.000000,
   3565.000000,
   3570.000000,
   3575.000000,
   3580.000000,
   3585.000000,
   3590.000000,
   3595.000000,
   3600.000000,
   3605.000000,
   3610.000000,
   3615.000000,
   3620.000000,
   3625.000000,
   3630.000000,
   3635.000000,
   3640.000000,
   3645.000000,
   3650.000000,
   3655.000000,
   3660.000000,
   3665.000000,
   3670.000000,
   3675.000000,
   3680.000000,
   3685.000000,
   3690.000000,
   3695.000000,
   3700.000000,
   3705.000000,
   3710.000000,
   3715.000000,
   3720.000000,
   3725.000000,
   3730.000000,
   3735.000000,
   3740.000000,
   3745.000000,
   3750.000000,
   3755.000000,
   3760.000000,
   3765.000000,
   3770.000000,
   3775.000000,
   3780.000000,
   3785.000000,
   3790.000000,
   3795.000000,
   3800.000000,
   3805.000000,
   3810.000000,
   3815.000000,
   3820.000000,
   3825.000000,
   3830.000000,
   3835.000000,
   3840.000000,
   3845.000000,
   3850.000000,
   3855.000000,
   3860.000000,
   3865.000000,
   3870.000000,
   3875.000000,
   3880.000000,
   3885.000000,
   3890.000000,
   3895.000000,
   3900.000000,
   3905.000000,
   3910.000000,
   3915.000000,
   3920.000000,
   3925.000000,
   3930.000000,
   3935.000000,
   3940.000000,
   3945.000000,
   3950.000000,
   3955.000000,
   3960.000000,
   3965.000000,
   3970.000000,
   3975.000000,
   3980.000000,
   3985.000000,
   3990.000000,
   3995.000000,
   4000.000000,
   4005.000000,
   4010.000000,
   4015.000000,
   4020.000000,
   4025.000000,
   4030.000000,
   4035.000000,
   4040.000000,
   4045.000000,
   4050.000000,
   4055.000000,
   4060.000000,
   4065.000000,
   4070.000000,
   4075.000000,
   4080.000000,
   4085.000000,
   4090.000000,
   4095.000000,
   4100.000000,
   4105.000000,
   4110.000000,
   4115.000000,
   4120.000000,
   4125.000000,
   4130.000000,
   4135.000000,
   4140.000000,
   4145.000000,
   4150.000000,
   4155.000000,
   4160.000000,
   4165.000000,
   4170.000000,
   4175.000000,
   4180.000000,
   4185.000000,
   4190.000000,
   4195.000000,
   4200.000000,
   4205.000000,
   4210.000000,
   4215.000000,
   4220.000000,
   4225.000000,
   4230.000000,
   4235.000000,
   4240.000000,
   4245.000000,
   4250.000000,
   4255.000000,
   4260.000000,
   4265.000000,
   4270.000000,
   4275.000000,
   4280.000000,
   4285.000000,
   4290.000000,
   4295.000000,
   4300.000000,
   4305.000000,
   4310.000000,
   4315.000000,
   4320.000000,
   4325.000000,
   4330.000000,
   4335.000000,
   4340.000000,
   4345.000000,
   4350.000000,
   4355.000000,
   4360.000000,
   4365.000000,
   4370.000000,
   4375.000000,
   4380.000000,
   4385.000000,
   4390.000000,
   4395.000000,
   4400.000000,
   4405.000000,
   4410.000000,
   4415.000000,
   4420.000000,
   4425.000000,
   4430.000000,
   4435.000000,
   4440.000000,
   4445.000000,
   4450.000000,
   4455.000000,
   4460.000000,
   4465.000000,
   4470.000000,
   4475.000000,
   4480.000000,
   4485.000000,
   4490.000000,
   4495.000000,
   4500.000000,
   4505.000000,
   4510.000000,
   4515.000000,
   4520.000000,
   4525.000000,
   4530.000000,
   4535.000000,
   4540.000000,
   4545.000000,
   4550.000000,
   4555.000000,
   4560.000000,
   4565.000000,
   4570.000000,
   4575.000000,
   4580.000000,
   4585.000000,
   4590.000000,
   4595.000000,
   4600.000000,
   4605.000000,
   4610.000000,
   4615.000000,
   4620.000000,
   4625.000000,
   4630.000000,
   4635.000000,
   4640.000000,
   4645.000000,
   4650.000000,
   4655.000000,
   4660.000000,
   4665.000000,
   4670.000000,
   4675.000000,
   4680.000000,
   4685.000000,
   4690.000000,
   4695.000000,
   4700.000000,
   4705.000000,
   4710.000000,
   4715.000000,
   4720.000000,
   4725.000000,
   4730.000000,
   4735.000000,
   4740.000000,
   4745.000000,
   4750.000000,
   4755.000000,
   4760.000000,
   4765.000000,
   4770.000000,
   4775.000000,
   4780.000000,
   4785.000000,
   4790.000000,
   4795.000000,
   4800.000000,
   4805.000000,
   4810.000000,
   4815.000000,
   4820.000000,
   4825.000000,
   4830.000000,
   4835.000000,
   4840.000000,
   4845.000000,
   4850.000000,
   4855.000000,
   4860.000000,
   4865.000000,
   4870.000000,
   4875.000000,
   4880.000000,
   4885.000000,
   4890.000000,
   4895.000000,
   4900.000000,
   4905.000000,
   4910.000000,
   4915.000000,
   4920.000000,
   4925.000000,
   4930.000000,
   4935.000000,
   4940.000000,
   4945.000000,
   4950.000000,
   4955.000000,
   4960.000000,
   4965.000000,
   4970.000000,
   4975.000000,
   4980.000000,
   4985.000000,
   4990.000000,
   4995.000000,
   5000.000000,
   5005.000000,
   5010.000000,
   5015.000000,
   5020.000000,
   5025.000000,
   5030.000000,
   5035.000000,
   5040.000000,
   5045.000000,
   5050.000000,
   5055.000000,
   5060.000000,
   5065.000000,
   5070.000000,
   5075.000000,
   5080.000000,
   5085.000000,
   5090.000000,
   5095.000000,
   5100.000000,
   5105.000000,
   5110.000000,
   5115.000000,
   5120.000000,
   5125.000000,
   5130.000000,
   5135.000000,
   5140.000000,
   5145.000000,
   5150.000000,
   5155.000000,
   5160.000000,
   5165.000000,
   5170.000000,
   5175.000000,
   5180.000000,
   5185.000000,
   5190.000000,
   5195.000000,
   5200.000000,
   5205.000000,
   5210.000000,
   5215.000000,
   5220.000000,
   5225.000000,
   5230.000000,
   5235.000000,
   5240.000000,
   5245.000000,
   5250.000000,
   5255.000000,
   5260.000000,
   5265.000000,
   5270.000000,
   5275.000000,
   5280.000000,
   5285.000000,
   5290.000000,
   5295.000000,
   5300.000000,
   5305.000000,
   5310.000000,
   5315.000000,
   5320.000000,
   5325.000000,
   5330.000000,
   5335.000000,
   5340.000000,
   5345.000000,
   5350.000000,
   5355.000000,
   5360.000000,
   5365.000000,
   5370.000000,
   5375.000000,
   5380.000000,
   5385.000000,
   5390.000000,
   5395.000000,
   5400.000000,
   5405.000000,
   5410.000000,
   5415.000000,
   5420.000000,
   5425.000000,
   5430.000000,
   5435.000000,
   5440.000000,
   5445.000000,
   5450.000000,
   5455.000000,
   5460.000000,
   5465.000000,
   5470.000000,
   5475.000000,
   5480.000000,
   5485.000000,
   5490.000000,
   5495.000000,
   5500.000000,
   5505.000000,
   5510.000000,
   5515.000000,
   5520.000000,
   5525.000000,
   5530.000000,
   5535.000000,
   5540.000000,
   5545.000000,
   5550.000000,
   5555.000000,
   5560.000000,
   5565.000000,
   5570.000000,
   5575.000000,
   5580.000000,
   5585.000000,
   5590.000000,
   5595.000000,
   5600.000000,
   5605.000000,
   5610.000000,
   5615.000000,
   5620.000000,
   5625.000000,
   5630.000000,
   5635.000000,
   5640.000000,
   5645.000000,
   5650.000000,
   5655.000000,
   5660.000000,
   5665.000000,
   5670.000000,
   5675.000000,
   5680.000000,
   5685.000000,
   5690.000000,
   5695.000000,
   5700.000000,
   5705.000000,
   5710.000000,
   5715.000000,
   5720.000000,
   5725.000000,
   5730.000000,
   5735.000000,
   5740.000000,
   5745.000000,
   5750.000000,
   5755.000000,
   5760.000000,
   5765.000000,
   5770.000000,
   5775.000000,
   5780.000000,
   5785.000000,
   5790.000000,
   5795.000000,
   5800.000000,
   5805.000000,
   5810.000000,
   5815.000000,
   5820.000000,
   5825.000000,
   5830.000000,
   5835.000000,
   5840.000000,
   5845.000000,
   5850.000000,
   5855.000000,
   5860.000000,
   5865.000000,
   5870.000000,
   5875.000000,
   5880.000000,
   5885.000000,
   5890.000000,
   5895.000000,
   5900.000000,
   5905.000000,
   5910.000000,
   5915.000000,
   5920.000000,
   5925.000000,
   5930.000000,
   5935.000000,
   5940.000000,
   5945.000000,
   5950.000000,
   5955.000000,
   5960.000000,
   5965.000000,
   5970.000000,
   5975.000000,
   5980.000000,
   5985.000000,
   5990.000000,
   5995.000000,
   6000.000000,
   6005.000000,
   6010.000000,
   6015.000000,
   6020.000000,
   6025.000000,
   6030.000000,
   6035.000000,
   6040.000000,
   6045.000000,
   6050.000000,
   6055.000000,
   6060.000000,
   6065.000000,
   6070.000000,
   6075.000000,
   6080.000000,
   6085.000000,
   6090.000000,
   6095.000000,
   6100.000000,
   6105.000000,
   6110.000000,
   6115.000000,
   6120.000000,
   6125.000000,
   6130.000000,
   6135.000000,
   6140.000000,
   6145.000000,
   6150.000000,
   6155.000000,
   6160.000000,
   6165.000000,
   6170.000000,
   6175.000000,
   6180.000000,
   6185.000000,
   6190.000000,
   6195.000000,
   6200.000000,
   6205.000000,
   6210.000000,
   6215.000000,
   6220.000000,
   6225.000000,
   6230.000000,
   6235.000000,
   6240.000000,
   6245.000000,
   6250.000000,
   6255.000000,
   6260.000000,
   6265.000000,
   6270.000000,
   6275.000000,
   6280.000000,
   6285.000000,
   6290.000000,
   6295.000000,
   6300.000000,
   6305.000000,
   6310.000000,
   6315.000000,
   6320.000000,
   6325.000000,
   6330.000000,
   6335.000000,
   6340.000000,
   6345.000000,
   6350.000000,
   6355.000000,
   6360.000000,
   6365.000000,
   6370.000000,
   6375.000000,
   6380.000000,
   6385.000000,
   6390.000000,
   6395.000000,
   6400.000000,
   6405.000000,
   6410.000000,
   6415.000000,
   6420.000000,
   6425.000000,
   6430.000000,
   6435.000000,
   6440.000000,
   6445.000000,
   6450.000000,
   6455.000000,
   6460.000000,
   6465.000000,
   6470.000000,
   6475.000000,
   6480.000000,
   6485.000000,
   6490.000000,
   6495.000000,
   6500.000000,
   6505.000000,
   6510.000000,
   6515.000000,
   6520.000000,
   6525.000000,
   6530.000000,
   6535.000000,
   6540.000000,
   6545.000000,
   6550.000000,
   6555.000000,
   6560.000000,
   6565.000000,
   6570.000000,
   6575.000000,
   6580.000000,
   6585.000000,
   6590.000000,
   6595.000000,
   6600.000000,
   6605.000000,
   6610.000000,
   6615.000000,
   6620.000000,
   6625.000000,
   6630.000000,
   6635.000000,
   6640.000000,
   6645.000000,
   6650.000000,
   6655.000000,
   6660.000000,
   6665.000000,
   6670.000000,
   6675.000000,
   6680.000000,
   6685.000000,
   6690.000000,
   6695.000000,
   6700.000000,
   6705.000000,
   6710.000000,
   6715.000000,
   6720.000000,
   6725.000000,
   6730.000000,
   6735.000000,
   6740.000000,
   6745.000000,
   6750.000000,
   6755.000000,
   6760.000000,
   6765.000000,
   6770.000000,
   6775.000000,
   6780.000000,
   6785.000000,
   6790.000000,
   6795.000000,
   6800.000000,
   6805.000000,
   6810.000000,
   6815.000000,
   6820.000000,
   6825.000000,
   6830.000000,
   6835.000000,
   6840.000000,
   6845.000000,
   6850.000000,
   6855.000000,
   6860.000000,
   6865.000000,
   6870.000000,
   6875.000000,
   6880.000000,
   6885.000000,
   6890.000000,
   6895.000000,
   6900.000000,
   6905.000000,
   6910.000000,
   6915.000000,
   6920.000000,
   6925.000000,
   6930.000000,
   6935.000000,
   6940.000000,
   6945.000000,
   6950.000000,
   6955.000000,
   6960.000000,
   6965.000000,
   6970.000000,
   6975.000000,
   6980.000000,
   6985.000000,
   6990.000000,
   6995.000000,
   7000.000000,
   7005.000000,
   7010.000000,
   7015.000000,
   7020.000000,
   7025.000000,
   7030.000000,
   7035.000000,
   7040.000000,
   7045.000000,
   7050.000000,
   7055.000000,
   7060.000000,
   7065.000000,
   7070.000000,
   7075.000000,
   7080.000000,
   7085.000000,
   7090.000000,
   7095.000000,
   7100.000000,
   7105.000000,
   7110.000000,
   7115.000000,
   7120.000000,
   7125.000000,
   7130.000000,
   7135.000000,
   7140.000000,
   7145.000000,
   7150.000000,
   7155.000000,
   7160.000000,
   7165.000000,
   7170.000000,
   7175.000000,
   7180.000000,
   7185.000000,
   7190.000000,
   7195.000000,
   7200.000000,
   7205.000000,
   7210.000000,
   7215.000000,
   7220.000000,
   7225.000000,
   7230.000000,
   7235.000000,
   7240.000000,
   7245.000000,
   7250.000000,
   7255.000000,
   7260.000000,
   7265.000000,
   7270.000000,
   7275.000000,
   7280.000000,
   7285.000000,
   7290.000000,
   7295.000000,
   7300.000000,
   7305.000000,
   7310.000000,
   7315.000000,
   7320.000000,
   7325.000000,
   7330.000000,
   7335.000000,
   7340.000000,
   7345.000000,
   7350.000000,
   7355.000000,
   7360.000000,
   7365.000000,
   7370.000000,
   7375.000000,
   7380.000000,
   7385.000000,
   7390.000000,
   7395.000000,
   7400.000000,
   7405.000000,
   7410.000000,
   7415.000000,
   7420.000000,
   7425.000000,
   7430.000000,
   7435.000000,
   7440.000000,
   7445.000000,
   7450.000000,
   7455.000000,
   7460.000000,
   7465.000000,
   7470.000000,
   7475.000000,
   7480.000000,
   7485.000000,
   7490.000000,
   7495.000000,
   7500.000000,
   7505.000000,
   7510.000000,
   7515.000000,
   7520.000000,
   7525.000000,
   7530.000000,
   7535.000000,
   7540.000000,
   7545.000000,
   7550.000000,
   7555.000000,
   7560.000000,
   7565.000000,
   7570.000000,
   7575.000000,
   7580.000000,
   7585.000000,
   7590.000000,
   7595.000000,
   7600.000000,
   7605.000000,
   7610.000000,
   7615.000000,
   7620.000000,
   7625.000000,
   7630.000000,
   7635.000000,
   7640.000000,
   7645.000000,
   7650.000000,
   7655.000000,
   7660.000000,
   7665.000000,
   7670.000000,
   7675.000000,
   7680.000000,
   7685.000000,
   7690.000000,
   7695.000000,
   7700.000000,
   7705.000000,
   7710.000000,
   7715.000000,
   7720.000000,
   7725.000000,
   7730.000000,
   7735.000000,
   7740.000000,
   7745.000000,
   7750.000000,
   7755.000000,
   7760.000000,
   7765.000000,
   7770.000000,
   7775.000000,
   7780.000000,
   7785.000000,
   7790.000000,
   7795.000000,
   7800.000000,
   7805.000000,
   7810.000000,
   7815.000000,
   7820.000000,
   7825.000000,
   7830.000000,
   7835.000000,
   7840.000000,
   7845.000000,
   7850.000000,
   7855.000000,
   7860.000000,
   7865.000000,
   7870.000000,
   7875.000000,
   7880.000000,
   7885.000000,
   7890.000000,
   7895.000000,
   7900.000000,
   7905.000000,
   7910.000000,
   7915.000000,
   7920.000000,
   7925.000000,
   7930.000000,
   7935.000000,
   7940.000000,
   7945.000000,
   7950.000000,
   7955.000000,
   7960.000000,
   7965.000000,
   7970.000000,
   7975.000000,
   7980.000000,
   7985.000000,
   7990.000000,
   7995.000000,
   8000.000000,
   8005.000000,
   8010.000000,
   8015.000000,
   8020.000000,
   8025.000000,
   8030.000000,
   8035.000000,
   8040.000000,
   8045.000000,
   8050.000000,
   8055.000000,
   8060.000000,
   8065.000000,
   8070.000000,
   8075.000000,
   8080.000000,
   8085.000000,
   8090.000000,
   8095.000000,
   8100.000000,
   8105.000000,
   8110.000000,
   8115.000000,
   8120.000000,
   8125.000000,
   8130.000000,
   8135.000000,
   8140.000000,
   8145.000000,
   8150.000000,
   8155.000000,
   8160.000000,
   8165.000000,
   8170.000000,
   8175.000000,
   8180.000000,
   8185.000000,
   8190.000000,
   8195.000000,
   8200.000000,
   8205.000000,
   8210.000000,
   8215.000000,
   8220.000000,
   8225.000000,
   8230.000000,
   8235.000000,
   8240.000000,
   8245.000000,
   8250.000000,
   8255.000000,
   8260.000000,
   8265.000000,
   8270.000000,
   8275.000000,
   8280.000000,
   8285.000000,
   8290.000000,
   8295.000000,
   8300.000000,
   8305.000000,
   8310.000000,
   8315.000000,
   8320.000000,
   8325.000000,
   8330.000000,
   8335.000000,
   8340.000000,
   8345.000000,
   8350.000000,
   8355.000000,
   8360.000000,
   8365.000000,
   8370.000000,
   8375.000000,
   8380.000000,
   8385.000000,
   8390.000000,
   8395.000000,
   8400.000000,
   8405.000000,
   8410.000000,
   8415.000000,
   8420.000000,
   8425.000000,
   8430.000000,
   8435.000000,
   8440.000000,
   8445.000000,
   8450.000000,
   8455.000000,
   8460.000000,
   8465.000000,
   8470.000000,
   8475.000000,
   8480.000000,
   8485.000000,
   8490.000000,
   8495.000000,
   8500.000000,
   8505.000000,
   8510.000000,
   8515.000000,
   8520.000000,
   8525.000000,
   8530.000000,
   8535.000000,
   8540.000000,
   8545.000000,
   8550.000000,
   8555.000000,
   8560.000000,
   8565.000000,
   8570.000000,
   8575.000000,
   8580.000000,
   8585.000000,
   8590.000000,
   8595.000000,
   8600.000000,
   8605.000000,
   8610.000000,
   8615.000000,
   8620.000000,
   8625.000000,
   8630.000000,
   8635.000000,
   8640.000000,
   8645.000000,
   8650.000000,
   8655.000000,
   8660.000000,
   8665.000000,
   8670.000000,
   8675.000000,
   8680.000000,
   8685.000000,
   8690.000000,
   8695.000000,
   8700.000000,
   8705.000000,
   8710.000000,
   8715.000000,
   8720.000000,
   8725.000000,
   8730.000000,
   8735.000000,
   8740.000000,
   8745.000000,
   8750.000000,
   8755.000000,
   8760.000000,
   8765.000000,
   8770.000000,
   8775.000000,
   8780.000000,
   8785.000000,
   8790.000000,
   8795.000000,
   8800.000000,
   8805.000000,
   8810.000000,
   8815.000000,
   8820.000000,
   8825.000000,
   8830.000000,
   8835.000000,
   8840.000000,
   8845.000000,
   8850.000000,
   8855.000000,
   8860.000000,
   8865.000000,
   8870.000000,
   8875.000000,
   8880.000000,
   8885.000000,
   8890.000000,
   8895.000000,
   8900.000000,
   8905.000000,
   8910.000000,
   8915.000000,
   8920.000000,
   8925.000000,
   8930.000000,
   8935.000000,
   8940.000000,
   8945.000000,
   8950.000000,
   8955.000000,
   8960.000000,
   8965.000000,
   8970.000000,
   8975.000000,
   8980.000000,
   8985.000000,
   8990.000000,
   8995.000000,
   9000.000000,
   9005.000000,
   9010.000000,
   9015.000000,
   9020.000000,
   9025.000000,
   9030.000000,
   9035.000000,
   9040.000000,
   9045.000000,
   9050.000000,
   9055.000000,
   9060.000000,
   9065.000000,
   9070.000000,
   9075.000000,
   9080.000000,
   9085.000000,
   9090.000000,
   9095.000000,
   9100.000000,
   9105.000000,
   9110.000000,
   9115.000000,
   9120.000000,
   9125.000000,
   9130.000000,
   9135.000000,
   9140.000000,
   9145.000000,
   9150.000000,
   9155.000000,
   9160.000000,
   9165.000000,
   9170.000000,
   9175.000000,
   9180.000000,
   9185.000000,
   9190.000000,
   9195.000000,
   9200.000000,
   9205.000000,
   9210.000000,
   9215.000000,
   9220.000000,
   9225.000000,
   9230.000000,
   9235.000000,
   9240.000000,
   9245.000000,
   9250.000000,
   9255.000000,
   9260.000000,
   9265.000000,
   9270.000000,
   9275.000000,
   9280.000000,
   9285.000000,
   9290.000000,
   9295.000000,
   9300.000000,
   9305.000000,
   9310.000000,
   9315.000000,
   9320.000000,
   9325.000000,
   9330.000000,
   9335.000000,
   9340.000000,
   9345.000000,
   9350.000000,
   9355.000000,
   9360.000000,
   9365.000000,
   9370.000000,
   9375.000000,
   9380.000000,
   9385.000000,
   9390.000000,
   9395.000000,
   9400.000000,
   9405.000000,
   9410.000000,
   9415.000000,
   9420.000000,
   9425.000000,
   9430.000000,
   9435.000000,
   9440.000000,
   9445.000000,
   9450.000000,
   9455.000000,
   9460.000000,
   9465.000000,
   9470.000000,
   9475.000000,
   9480.000000,
   9485.000000,
   9490.000000,
   9495.000000,
   9500.000000,
   9505.000000,
   9510.000000,
   9515.000000,
   9520.000000,
   9525.000000,
   9530.000000,
   9535.000000,
   9540.000000,
   9545.000000,
   9550.000000,
   9555.000000,
   9560.000000,
   9565.000000,
   9570.000000,
   9575.000000,
   9580.000000,
   9585.000000,
   9590.000000,
   9595.000000,
   9600.000000,
   9605.000000,
   9610.000000,
   9615.000000,
   9620.000000,
   9625.000000,
   9630.000000,
   9635.000000,
   9640.000000,
   9645.000000,
   9650.000000,
   9655.000000,
   9660.000000,
   9665.000000,
   9670.000000,
   9675.000000,
   9680.000000,
   9685.000000,
   9690.000000,
   9695.000000,
   9700.000000,
   9705.000000,
   9710.000000,
   9715.000000,
   9720.000000,
   9725.000000,
   9730.000000,
   9735.000000,
   9740.000000,
   9745.000000,
   9750.000000,
   9755.000000,
   9760.000000,
   9765.000000,
   9770.000000,
   9775.000000,
   9780.000000,
   9785.000000,
   9790.000000,
   9795.000000,
   9800.000000,
   9805.000000,
   9810.000000,
   9815.000000,
   9820.000000,
   9825.000000,
   9830.000000,
   9835.000000,
   9840.000000,
   9845.000000,
   9850.000000,
   9855.000000,
   9860.000000,
   9865.000000,
   9870.000000,
   9875.000000,
   9880.000000,
   9885.000000,
   9890.000000,
   9895.000000,
   9900.000000,
   9905.000000,
   9910.000000,
   9915.000000,
   9920.000000,
   9925.000000,
   9930.000000,
   9935.000000,
   9940.000000,
   9945.000000,
   9950.000000,
   9955.000000,
   9960.000000,
   9965.000000,
   9970.000000,
   9975.000000,
   9980.000000,
   9985.000000,
   9990.000000,
   9995.000000,
   10000.000000,
   10005.000000,
   10010.000000,
   10015.000000,
   10020.000000,
   10025.000000,
   10030.000000,
   10035.000000,
   10040.000000,
   10045.000000,
   10050.000000,
   10055.000000,
   10060.000000,
   10065.000000,
   10070.000000,
   10075.000000,
   10080.000000,
   10085.000000,
   10090.000000,
   10095.000000,
   10100.000000,
   10105.000000,
   10110.000000,
   10115.000000,
   10120.000000,
   10125.000000,
   10130.000000,
   10135.000000,
   10140.000000,
   10145.000000,
   10150.000000,
   10155.000000,
   10160.000000,
   10165.000000,
   10170.000000,
   10175.000000,
   10180.000000,
   10185.000000,
   10190.000000,
   10195.000000,
   10200.000000,
   10205.000000,
   10210.000000,
   10215.000000,
   10220.000000,
   10225.000000,
   10230.000000,
   10235.000000,
   10240.000000,
   10245.000000,
   10250.000000,
   10255.000000,
   10260.000000,
   10265.000000,
   10270.000000,
   10275.000000,
   10280.000000,
   10285.000000,
   10290.000000,
   10295.000000,
   10300.000000,
   10305.000000,
   10310.000000,
   10315.000000,
   10320.000000,
   10325.000000,
   10330.000000,
   10335.000000,
   10340.000000,
   10345.000000,
   10350.000000,
   10355.000000,
   10360.000000,
   10365.000000,
   10370.000000,
   10375.000000,
   10380.000000,
   10385.000000,
   10390.000000,
   10395.000000,
   10400.000000,
   10405.000000,
   10410.000000,
   10415.000000,
   10420.000000,
   10425.000000,
   10430.000000,
   10435.000000,
   10440.000000,
   10445.000000,
   10450.000000,
   10455.000000,
   10460.000000,
   10465.000000,
   10470.000000,
   10475.000000,
   10480.000000,
   10485.000000,
   10490.000000,
   10495.000000,
   10500.000000,
   10505.000000,
   10510.000000,
   10515.000000,
   10520.000000,
   10525.000000,
   10530.000000,
   10535.000000,
   10540.000000,
   10545.000000,
   10550.000000,
   10555.000000,
   10560.000000,
   10565.000000,
   10570.000000,
   10575.000000,
   10580.000000,
   10585.000000,
   10590.000000,
   10595.000000,
   10600.000000,
   10605.000000,
   10610.000000,
   10615.000000,
   10620.000000
};

static double _b0i_flux[] = {
   83.991211,
   58.341976,
   43.706703,
   39.075466,
   30.460142,
   28.460478,
   32.948700,
   32.454659,
   26.525326,
   24.047913,
   22.182455,
   18.142353,
   10.791340,
   7.417881,
   16.184370,
   24.913786,
   26.980165,
   31.844057,
   40.926273,
   40.057293,
   35.842510,
   35.299782,
   37.266758,
   40.648403,
   41.640537,
   41.284897,
   41.367340,
   40.439930,
   38.928764,
   34.775234,
   32.609489,
   36.622925,
   40.193348,
   40.442902,
   39.279583,
   38.039871,
   36.129440,
   33.394222,
   34.692959,
   35.746880,
   36.855816,
   36.848591,
   35.894787,
   36.019718,
   35.400425,
   34.026737,
   30.718807,
   24.371696,
   21.509176,
   22.982014,
   26.524004,
   30.074591,
   30.741201,
   29.008007,
   27.430361,
   25.954550,
   26.877003,
   28.680920,
   28.763025,
   28.633932,
   28.314594,
   26.855072,
   26.903009,
   27.814262,
   28.249901,
   28.510239,
   28.131914,
   28.700014,
   28.869814,
   26.757053,
   24.584356,
   25.620134,
   26.420876,
   25.650492,
   25.511909,
   21.497114,
   18.499964,
   15.293584,
   10.943223,
   10.738264,
   18.114910,
   21.846426,
   19.168955,
   17.697443,
   19.046017,
   20.009108,
   20.368210,
   21.418530,
   21.025904,
   19.713657,
   18.222679,
   16.509319,
   15.357357,
   15.334128,
   15.749368,
   16.278303,
   16.348309,
   17.461649,
   18.156507,
   19.481413,
   18.880507,
   17.006527,
   16.637274,
   17.332258,
   17.317175,
   19.205544,
   20.993013,
   20.131830,
   18.833366,
   18.083588,
   17.621319,
   17.526703,
   17.157167,
   16.268343,
   15.050303,
   16.087692,
   18.036402,
   19.004408,
   18.352493,
   18.100721,
   17.879850,
   18.876987,
   19.583643,
   19.155426,
   18.817421,
   18.527529,
   18.594889,
   17.450180,
   15.700681,
   17.133331,
   17.836798,
   17.368868,
   17.055376,
   17.757805,
   17.975607,
   17.644890,
   17.780716,
   17.672281,
   16.287937,
   15.501573,
   14.873184,
   14.838931,
   15.420743,
   15.779114,
   15.561238,
   15.400633,
   14.831485,
   13.656369,
   13.299153,
   13.767753,
   14.071351,
   13.878003,
   13.541056,
   12.937424,
   12.514433,
   12.439047,
   13.172738,
   13.498255,
   13.423195,
   13.400893,
   12.741068,
   12.202139,
   11.474635,
   11.028347,
   11.740742,
   12.772577,
   12.884361,
   12.538090,
   11.718955,
   11.002927,
   11.086151,
   11.397476,
   11.577798,
   11.769288,
   11.971156,
   12.269783,
   12.198345,
   11.934130,
   11.494199,
   11.378174,
   11.312434,
   11.234950,
   10.791256,
   10.469042,
   10.386005,
   10.660854,
   11.018745,
   10.726145,
   10.741750,
   9.984419,
   9.514001,
   9.582352,
   9.884217,
   10.154771,
   9.937338,
   9.836423,
   10.361991,
   10.316433,
   9.830153,
   9.724800,
   9.460282,
   9.401035,
   9.692337,
   9.582251,
   9.218072,
   8.786125,
   8.959036,
   9.283171,
   9.192223,
   9.384987,
   9.543755,
   9.178756,
   8.843973,
   8.880187,
   8.620966,
   8.768286,
   8.783760,
   8.543283,
   8.330256,
   8.460037,
   9.041230,
   9.068233,
   8.931007,
   8.863086,
   8.887070,
   8.853436,
   8.839423,
   8.576970,
   8.562578,
   8.614207,
   8.425666,
   8.340227,
   8.731196,
   9.006403,
   8.931766,
   8.976527,
   9.194280,
   9.412384,
   9.267853,
   9.088095,
   9.107154,
   9.145591,
   9.294605,
   9.121030,
   9.047461,
   9.279632,
   9.180378,
   8.948218,
   8.498903,
   8.574991,
   8.851083,
   8.935912,
   8.878848,
   8.704780,
   8.925096,
   8.918494,
   9.230927,
   9.477740,
   9.441823,
   9.352126,
   9.168669,
   9.410546,
   9.710077,
   9.517234,
   9.204398,
   8.926952,
   8.805020,
   8.854306,
   8.906132,
   9.009701,
   9.309333,
   9.277555,
   9.087378,
   8.936749,
   8.702408,
   8.595993,
   8.860003,
   9.167855,
   9.024759,
   8.846588,
   9.201798,
   8.914364,
   8.836687,
   8.795597,
   8.958926,
   9.019089,
   8.261820,
   7.676525,
   7.682712,
   8.348817,
   8.677408,
   8.622532,
   8.730873,
   8.825856,
   8.894806,
   8.923891,
   9.003876,
   9.031891,
   9.110029,
   8.897839,
   8.869260,
   8.866414,
   8.760268,
   8.535884,
   8.527098,
   8.566699,
   8.413662,
   8.371382,
   8.576406,
   8.294156,
   8.219975,
   8.538577,
   8.339112,
   8.297320,
   8.177495,
   8.053123,
   8.131171,
   8.142927,
   8.094041,
   8.080187,
   8.301506,
   8.117505,
   7.968515,
   8.245002,
   8.099720,
   8.065144,
   8.144164,
   8.043444,
   7.793729,
   7.477939,
   7.025463,
   6.988256,
   7.266552,
   7.657355,
   8.208179,
   8.156998,
   7.529390,
   7.341627,
   7.635674,
   7.753885,
   7.749755,
   7.515635,
   7.487709,
   7.499716,
   7.557413,
   7.569136,
   7.578549,
   7.373263,
   7.281291,
   7.391340,
   7.383855,
   7.224257,
   7.189029,
   7.513344,
   7.573295,
   7.284534,
   7.102052,
   7.140976,
   7.099023,
   7.177653,
   7.112934,
   7.127072,
   7.108953,
   7.006405,
   6.951292,
   6.943677,
   7.040808,
   6.798617,
   6.661730,
   6.607160,
   6.592566,
   6.500528,
   6.552042,
   6.620212,
   6.645498,
   6.703362,
   6.510348,
   6.286079,
   6.393615,
   6.456138,
   6.369274,
   6.389812,
   6.243346,
   6.093087,
   6.136297,
   6.051019,
   6.124623,
   6.140869,
   6.108706,
   6.237288,
   6.194170,
   6.344122,
   6.411517,
   6.470278,
   6.225576,
   6.160236,
   6.346509,
   6.121843,
   6.232697,
   6.313730,
   6.588082,
   6.481061,
   5.943335,
   6.252533,
   6.334218,
   6.219466,
   6.085032,
   6.069029,
   6.030931,
   6.145948,
   6.038697,
   6.128222,
   6.156649,
   6.028508,
   5.857850,
   5.777456,
   5.785494,
   5.842176,
   5.890514,
   5.881178,
   5.812674,
   5.701077,
   5.584894,
   5.498359,
   5.436187,
   5.384300,
   5.332995,
   5.281811,
   5.262888,
   5.293680,
   5.300287,
   5.220912,
   5.133519,
   5.121613,
   5.151102,
   5.168440,
   5.159880,
   5.127996,
   5.100863,
   5.100404,
   5.098454,
   5.071576,
   5.065368,
   5.114100,
   5.137718,
   5.064087,
   4.967095,
   4.930605,
   4.932366,
   4.929243,
   4.900676,
   4.841495,
   4.785507,
   4.762452,
   4.746817,
   4.709932,
   4.665764,
   4.631039,
   4.590883,
   4.532766,
   4.485112,
   4.473978,
   4.474972,
   4.459296,
   4.430950,
   4.401775,
   4.382171,
   4.377268,
   4.372572,
   4.355721,
   4.342492,
   4.347295,
   4.206489,
   4.184497,
   4.127238,
   4.110792,
   4.131583,
   4.169173,
   4.116663,
   4.074480,
   4.028982,
   4.048099,
   4.058836,
   4.056543,
   4.040579,
   4.033162,
   4.014059,
   3.931056,
   3.957140,
   3.961186,
   3.930813,
   3.914643,
   3.788541,
   3.843451,
   3.829932,
   3.800066,
   3.756657,
   3.723473,
   3.803140,
   3.773479,
   3.774057,
   3.839890,
   3.822666,
   3.721899,
   3.702334,
   3.689055,
   3.652440,
   3.684241,
   3.609218,
   3.501901,
   3.481097,
   3.430816,
   3.491454,
   3.567271,
   3.564420,
   3.563608,
   3.530563,
   3.394459,
   3.651127,
   3.611125,
   3.311299,
   3.505579,
   3.674727,
   3.500397,
   3.274069,
   3.521977,
   3.785457,
   3.813995,
   3.702639,
   3.371881,
   3.332380,
   3.623745,
   3.820701,
   3.722243,
   3.598572,
   3.715136,
   3.466755,
   3.080601,
   3.404709,
   3.663825,
   3.674111,
   3.624934,
   3.595353,
   3.589853,
   3.557250,
   3.550603,
   3.420497,
   3.137027,
   2.987067,
   3.341944,
   3.546871,
   3.572665,
   3.531567,
   3.518345,
   3.396551,
   3.331566,
   3.273467,
   3.293277,
   3.387661,
   3.347561,
   3.321512,
   3.298058,
   3.178529,
   2.839965,
   2.635243,
   3.015003,
   3.163583,
   3.196695,
   3.231355,
   3.156948,
   3.123779,
   3.080456,
   3.047450,
   3.075954,
   2.997390,
   2.864796,
   2.994575,
   3.041397,
   2.992532,
   3.011298,
   3.043561,
   3.023485,
   2.959635,
   2.889145,
   2.739165,
   2.727864,
   2.768324,
   2.722537,
   2.668288,
   2.548212,
   2.301575,
   2.472890,
   2.687260,
   2.628256,
   2.608124,
   2.713038,
   2.735974,
   2.722450,
   2.662035,
   2.648167,
   2.704111,
   2.685269,
   2.655181,
   2.658079,
   2.626352,
   2.593820,
   2.581040,
   2.535429,
   2.532950,
   2.562813,
   2.575822,
   2.595487,
   2.582174,
   2.536296,
   2.532994,
   2.530293,
   2.490763,
   2.491760,
   2.508039,
   2.495138,
   2.466378,
   2.421117,
   2.422694,
   2.400561,
   2.384946,
   2.333797,
   2.342592,
   2.343555,
   2.371948,
   2.384710,
   2.381910,
   2.370681,
   2.367161,
   2.321203,
   2.298087,
   2.359084,
   2.311473,
   2.138608,
   1.893682,
   1.956856,
   2.091884,
   2.254616,
   2.302825,
   2.276582,
   2.249070,
   2.249898,
   2.244073,
   2.155753,
   2.148325,
   2.218387,
   2.230262,
   2.207865,
   2.154986,
   2.043680,
   2.020675,
   2.001877,
   1.969359,
   2.008896,
   2.064371,
   2.086018,
   2.097351,
   2.130640,
   2.124426,
   2.040494,
   1.896127,
   1.981184,
   2.064311,
   2.104792,
   2.115897,
   2.092575,
   2.079363,
   2.083913,
   2.064219,
   2.074564,
   2.076063,
   2.080494,
   2.049374,
   2.051121,
   2.047559,
   2.012884,
   1.953868,
   1.980461,
   2.019040,
   1.932682,
   1.925248,
   1.930833,
   1.971982,
   1.944026,
   1.901461,
   1.887887,
   1.918642,
   1.904137,
   1.897478,
   1.929255,
   1.933079,
   1.933017,
   1.888430,
   1.844070,
   1.787035,
   1.742986,
   1.697199,
   1.830822,
   1.872181,
   1.900635,
   1.899409,
   1.853559,
   1.860101,
   1.898810,
   1.895241,
   1.858884,
   1.816730,
   1.816902,
   1.798217,
   1.771389,
   1.787355,
   1.766693,
   1.783783,
   1.798982,
   1.790512,
   1.779341,
   1.773027,
   1.742270,
   1.724447,
   1.714683,
   1.741215,
   1.727299,
   1.732903,
   1.734018,
   1.740915,
   1.729185,
   1.692114,
   1.707245,
   1.692890,
   1.659161,
   1.662944,
   1.682334,
   1.678061,
   1.707123,
   1.692524,
   1.665016,
   1.638327,
   1.512840,
   1.379514,
   1.484517,
   1.559910,
   1.564177,
   1.575309,
   1.586608,
   1.593041,
   1.597581,
   1.604887,
   1.606919,
   1.583144,
   1.573143,
   1.492221,
   1.493372,
   1.575376,
   1.598357,
   1.586318,
   1.569291,
   1.576081,
   1.571661,
   1.537736,
   1.528882,
   1.536986,
   1.533229,
   1.537537,
   1.552698,
   1.550924,
   1.540207,
   1.521736,
   1.485805,
   1.467740,
   1.428502,
   1.451899,
   1.462717,
   1.467293,
   1.465017,
   1.467668,
   1.424890,
   1.424320,
   1.438346,
   1.428948,
   1.428226,
   1.445209,
   1.439518,
   1.433318,
   1.421076,
   1.413112,
   1.410433,
   1.418847,
   1.411260,
   1.389870,
   1.389416,
   1.385316,
   1.379823,
   1.370873,
   1.379976,
   1.363613,
   1.362170,
   1.363240,
   1.323219,
   1.322875,
   1.331195,
   1.333335,
   1.341590,
   1.331634,
   1.336369,
   1.328870,
   1.322982,
   1.312086,
   1.296765,
   1.303725,
   1.291040,
   1.271022,
   1.275048,
   1.269990,
   1.268165,
   1.272974,
   1.257448,
   1.249458,
   1.246720,
   1.242410,
   1.231679,
   1.216457,
   1.209217,
   1.212514,
   1.219171,
   1.217473,
   1.220661,
   1.218215,
   1.211362,
   1.190140,
   1.189535,
   1.190948,
   1.196526,
   1.192786,
   1.184317,
   1.180802,
   1.179686,
   1.168744,
   1.171237,
   1.158677,
   1.153507,
   1.144207,
   1.140191,
   1.145223,
   1.136454,
   1.133851,
   1.127236,
   1.124126,
   1.127120,
   1.111564,
   1.108899,
   1.108723,
   1.108378,
   1.109415,
   1.089528,
   1.079592,
   1.070121,
   1.065616,
   1.064027,
   1.071842,
   1.067931,
   1.049288,
   1.058089,
   1.055497,
   1.042082,
   1.026295,
   1.032524,
   1.051204,
   1.036770,
   1.026456,
   1.028560,
   1.026361,
   1.011360,
   1.013328,
   1.002733,
   0.992628,
   1.003872,
   1.011384,
   0.997303,
   0.991585,
   0.997305,
   0.992045,
   1.000234,
   0.998138,
   0.982967,
   0.978389,
   0.973537,
   0.971793,
   0.971373,
   0.967718,
   0.952933,
   0.955313,
   0.956124,
   0.950433,
   0.959010,
   0.961053,
   0.946330,
   0.937758,
   0.936136,
   0.927443,
   0.915618,
   0.914695,
   0.910186,
   0.907819,
   0.913010,
   0.913871,
   0.895805,
   0.891503,
   0.894037,
   0.896849,
   0.889238,
   0.876181,
   0.886218,
   0.888555,
   0.879743,
   0.852360,
   0.854147,
   0.869816,
   0.871592,
   0.863536,
   0.852750,
   0.843060,
   0.821995,
   0.778043,
   0.802352,
   0.829856,
   0.812712,
   0.818107,
   0.835488,
   0.830737,
   0.829036,
   0.840079,
   0.834683,
   0.836247,
   0.834065,
   0.823929,
   0.807329,
   0.806076,
   0.814935,
   0.820958,
   0.813275,
   0.779180,
   0.726257,
   0.760471,
   0.736892,
   0.675643,
   0.705813,
   0.762006,
   0.810990,
   0.797849,
   0.798042,
   0.787113,
   0.784694,
   0.786570,
   0.787850,
   0.774935,
   0.765425,
   0.766903,
   0.772856,
   0.770968,
   0.763448,
   0.755963,
   0.753984,
   0.755267,
   0.748019,
   0.743352,
   0.749035,
   0.750537,
   0.742588,
   0.735079,
   0.737198,
   0.737755,
   0.737112,
   0.739269,
   0.725751,
   0.727294,
   0.731466,
   0.726355,
   0.721353,
   0.724046,
   0.718618,
   0.716113,
   0.711146,
   0.706452,
   0.710579,
   0.710137,
   0.706030,
   0.704713,
   0.704826,
   0.703552,
   0.701751,
   0.700080,
   0.696211,
   0.692654,
   0.688991,
   0.687219,
   0.684793,
   0.686198,
   0.685644,
   0.680237,
   0.672916,
   0.666030,
   0.662456,
   0.668007,
   0.666538,
   0.666962,
   0.666152,
   0.663790,
   0.660831,
   0.663163,
   0.662545,
   0.660625,
   0.659425,
   0.655148,
   0.654137,
   0.655845,
   0.654775,
   0.654336,
   0.652066,
   0.644673,
   0.634148,
   0.629828,
   0.619219,
   0.589328,
   0.590231,
   0.619350,
   0.627249,
   0.624678,
   0.623615,
   0.621757,
   0.619676,
   0.619538,
   0.622039,
   0.623013,
   0.624393,
   0.624507,
   0.620428,
   0.616459,
   0.614491,
   0.613124,
   0.610053,
   0.608116,
   0.602873,
   0.598265,
   0.602223,
   0.603675,
   0.601893,
   0.599568,
   0.598291,
   0.596361,
   0.593064,
   0.593869,
   0.596156,
   0.594921,
   0.592615,
   0.591829,
   0.586009,
   0.585028,
   0.584382,
   0.580554,
   0.577366,
   0.576348,
   0.573746,
   0.573943,
   0.571296,
   0.567270,
   0.569078,
   0.575298,
   0.576220,
   0.574215,
   0.566734,
   0.569971,
   0.568020,
   0.562076,
   0.559693,
   0.563662,
   0.559979,
   0.553200,
   0.542518,
   0.527249,
   0.516992,
   0.538776,
   0.550957,
   0.550775,
   0.553156,
   0.553026,
   0.552892,
   0.554369,
   0.555534,
   0.548545,
   0.545383,
   0.547689,
   0.546933,
   0.541921,
   0.541186,
   0.536947,
   0.534802,
   0.535220,
   0.530652,
   0.530196,
   0.529105,
   0.523190,
   0.496038,
   0.480634,
   0.510841,
   0.525442,
   0.522119,
   0.520989,
   0.521375,
   0.519348,
   0.516647,
   0.515924,
   0.513895,
   0.511097,
   0.510474,
   0.508254,
   0.506111,
   0.505967,
   0.505239,
   0.503199,
   0.506372,
   0.503462,
   0.501305,
   0.498651,
   0.496357,
   0.497714,
   0.496930,
   0.497328,
   0.499876,
   0.498583,
   0.495993,
   0.491746,
   0.489241,
   0.485454,
   0.484371,
   0.481350,
   0.480096,
   0.478813,
   0.477639,
   0.476484,
   0.475334,
   0.474201,
   0.473069,
   0.472042,
   0.470952,
   0.469891,
   0.468788,
   0.467698,
   0.466612,
   0.465529,
   0.464438,
   0.463401,
   0.462430,
   0.461599,
   0.460783,
   0.459951,
   0.459082,
   0.458221,
   0.457322,
   0.456414,
   0.455539,
   0.454585,
   0.461502,
   0.457901,
   0.456762,
   0.452033,
   0.450186,
   0.450125,
   0.450093,
   0.452742,
   0.449572,
   0.448063,
   0.443391,
   0.443038,
   0.447543,
   0.447013,
   0.446715,
   0.444594,
   0.438399,
   0.430189,
   0.409060,
   0.420306,
   0.440495,
   0.441244,
   0.439171,
   0.437651,
   0.438296,
   0.438076,
   0.437816,
   0.438099,
   0.438776,
   0.439244,
   0.439531,
   0.438864,
   0.435972,
   0.434126,
   0.433394,
   0.433338,
   0.433911,
   0.432755,
   0.425335,
   0.409858,
   0.395951,
   0.392328,
   0.386158,
   0.386495,
   0.392859,
   0.391919,
   0.393026,
   0.413332,
   0.425431,
   0.426625,
   0.423048,
   0.418453,
   0.406220,
   0.402399,
   0.398304,
   0.399210,
   0.395840,
   0.403064,
   0.394689,
   0.391939,
   0.377523,
   0.371229,
   0.383096,
   0.381441,
   0.384775,
   0.390027,
   0.382962,
   0.386007,
   0.384372,
   0.385167,
   0.390013,
   0.387225,
   0.385878,
   0.386017,
   0.383198,
   0.381899,
   0.382184,
   0.378803,
   0.375980,
   0.374512,
   0.374507,
   0.373936,
   0.371345,
   0.369469,
   0.367072,
   0.367755,
   0.367593,
   0.368184,
   0.368157,
   0.364456,
   0.362413,
   0.361001,
   0.360960,
   0.360209,
   0.358267,
   0.358875,
   0.358512,
   0.358299,
   0.358630,
   0.357390,
   0.355555,
   0.353380,
   0.352600,
   0.351057,
   0.349864,
   0.348686,
   0.348169,
   0.348125,
   0.346580,
   0.347293,
   0.345393,
   0.345948,
   0.344053,
   0.343865,
   0.342351,
   0.341733,
   0.340993,
   0.340267,
   0.339527,
   0.338801,
   0.338105,
   0.337381,
   0.336704,
   0.335992,
   0.335315,
   0.334589,
   0.333875,
   0.333130,
   0.332384,
   0.331633,
   0.330880,
   0.330124,
   0.329366,
   0.328608,
   0.327851,
   0.327097,
   0.326347,
   0.325601,
   0.324860,
   0.324125,
   0.323398,
   0.322642,
   0.321834,
   0.321040,
   0.320215,
   0.319396,
   0.318629,
   0.317828,
   0.317012,
   0.316173,
   0.315339,
   0.314435,
   0.313522,
   0.313569,
   0.313942,
   0.312803,
   0.312655,
   0.311593,
   0.309430,
   0.309441,
   0.308805,
   0.308543,
   0.307670,
   0.306665,
   0.306526,
   0.304594,
   0.304397,
   0.304273,
   0.302420,
   0.301111,
   0.301376,
   0.301612,
   0.300635,
   0.299371,
   0.298802,
   0.299534,
   0.298981,
   0.297996,
   0.297188,
   0.296212,
   0.295076,
   0.293335,
   0.294057,
   0.294348,
   0.290977,
   0.290978,
   0.291349,
   0.290516,
   0.290246,
   0.289539,
   0.288560,
   0.286602,
   0.287981,
   0.288825,
   0.287663,
   0.286459,
   0.285537,
   0.282772,
   0.280796,
   0.282221,
   0.281685,
   0.281498,
   0.281086,
   0.281336,
   0.280087,
   0.276841,
   0.276895,
   0.275903,
   0.275244,
   0.275202,
   0.273973,
   0.273999,
   0.273939,
   0.273504,
   0.273922,
   0.273255,
   0.274067,
   0.272874,
   0.271967,
   0.272643,
   0.272374,
   0.272226,
   0.272006,
   0.271637,
   0.270815,
   0.270376,
   0.273960,
   0.271596,
   0.269754,
   0.270026,
   0.269322,
   0.267141,
   0.261723,
   0.261358,
   0.259592,
   0.254855,
   0.249603,
   0.250151,
   0.241241,
   0.248008,
   0.254376,
   0.247542,
   0.253701,
   0.255531,
   0.254344,
   0.253529,
   0.260448,
   0.265599,
   0.262840,
   0.258008,
   0.247520,
   0.227579,
   0.236849,
   0.252766,
   0.254817,
   0.257295,
   0.254135,
   0.247395,
   0.251125,
   0.251128,
   0.243441,
   0.241158,
   0.243162,
   0.240530,
   0.240285,
   0.243394,
   0.240302,
   0.241641,
   0.243935,
   0.237723,
   0.239178,
   0.242457,
   0.241026,
   0.238913,
   0.239726,
   0.241113,
   0.238925,
   0.237845,
   0.236807,
   0.238089,
   0.236612,
   0.237441,
   0.237428,
   0.236663,
   0.236236,
   0.234994,
   0.234920,
   0.233630,
   0.232143,
   0.231810,
   0.233530,
   0.232459,
   0.230210,
   0.228566,
   0.228417,
   0.230008,
   0.231816,
   0.230361,
   0.226342,
   0.226616,
   0.227776,
   0.228692,
   0.229216,
   0.229247,
   0.226227,
   0.221501,
   0.218413,
   0.220886,
   0.223564,
   0.225299,
   0.225420,
   0.223703,
   0.221914,
   0.220060,
   0.215871,
   0.213095,
   0.217894,
   0.221390,
   0.221423,
   0.222026,
   0.220207,
   0.217562,
   0.215072,
   0.213325,
   0.209473,
   0.204574,
   0.207822,
   0.213673,
   0.217429,
   0.216916,
   0.216951,
   0.216716,
   0.215925,
   0.215284,
   0.214122,
   0.211843,
   0.208943,
   0.205367,
   0.198626,
   0.197694,
   0.204405,
   0.209647,
   0.211248,
   0.211127,
   0.213183,
   0.214254,
   0.213205,
   0.213398,
   0.213036,
   0.209873,
   0.210190,
   0.208146,
   0.205182,
   0.202223,
   0.197877,
   0.190012,
   0.188671,
   0.196100,
   0.201463,
   0.201763,
   0.200411,
   0.200116,
   0.200772,
   0.203542,
   0.203753,
   0.203283,
   0.203920,
   0.203436,
   0.202457,
   0.203136,
   0.200211,
   0.200158,
   0.199311,
   0.198274,
   0.195493,
   0.191409,
   0.187747,
   0.182089,
   0.175612,
   0.180873,
   0.188113,
   0.192126,
   0.193012,
   0.194647,
   0.195171,
   0.195402,
   0.195529,
   0.195682,
   0.194914,
   0.193697,
   0.194070,
   0.192274,
   0.192850,
   0.194194,
   0.192569,
   0.191687,
   0.188370,
   0.189589,
   0.183990,
   0.184541,
   0.183574,
   0.184061,
   0.179943,
   0.167705,
   0.169611,
   0.173869,
   0.176076,
   0.177215,
   0.173470,
   0.176936,
   0.181857,
   0.187353,
   0.192207,
   0.194266,
   0.192655,
   0.190871,
   0.187214,
   0.184642,
   0.179899,
   0.177676,
   0.176760,
   0.178540,
   0.177963,
   0.179279,
   0.180337,
   0.181633,
   0.182676,
   0.184232,
   0.187327,
   0.186079,
   0.186070,
   0.182780,
   0.178845,
   0.178750,
   0.182192,
   0.178055,
   0.170749,
   0.173457,
   0.176629,
   0.177011,
   0.173579,
   0.175554,
   0.180080,
   0.180062,
   0.179621,
   0.179885,
   0.178091,
   0.174904,
   0.171558,
   0.170440,
   0.168415,
   0.165054,
   0.167408,
   0.172565,
   0.175195,
   0.175175,
   0.178304,
   0.177226,
   0.178084,
   0.178789,
   0.176324,
   0.172034,
   0.172679,
   0.172495,
   0.169948,
   0.165196,
   0.162988,
   0.159681,
   0.154191,
   0.148030,
   0.149376,
   0.153516,
   0.152087,
   0.147043,
   0.140747,
   0.152253,
   0.146675,
   0.145107,
   0.153692,
   0.151710,
   0.157620,
   0.158079,
   0.163879,
   0.174769,
   0.181346,
   0.175246,
   0.169306,
   0.165915,
   0.163253,
   0.161123,
   0.155557,
   0.144903,
   0.154074,
   0.143967,
   0.140566,
   0.152794,
   0.150574,
   0.145038,
   0.150132,
   0.157633,
   0.160083,
   0.158606,
   0.156778,
   0.164772,
   0.152571,
   0.142939,
   0.151177,
   0.161838,
   0.157896,
   0.144185,
   0.142414,
   0.138081,
   0.142167,
   0.143435,
   0.136206,
   0.138413,
   0.138827,
   0.143716,
   0.145532,
   0.144629,
   0.153148,
   0.149025,
   0.143011,
   0.136697,
   0.135000,
   0.141015,
   0.141261,
   0.141344,
   0.142549,
   0.141753,
   0.134136,
   0.138617,
   0.137372,
   0.133943,
   0.136329,
   0.136826,
   0.140818,
   0.140290,
   0.136049,
   0.135922,
   0.136805,
   0.135941,
   0.134307,
   0.135187,
   0.138001,
   0.136789,
   0.137213,
   0.135798,
   0.132511,
   0.133397,
   0.130805,
   0.132796,
   0.130375,
   0.131460,
   0.131608,
   0.130996,
   0.130630,
   0.130585,
   0.129904,
   0.132172,
   0.131279,
   0.130906,
   0.129896,
   0.131065,
   0.127755,
   0.128484,
   0.131990,
   0.130296,
   0.129711,
   0.129928,
   0.126477,
   0.128153,
   0.130596,
   0.131206,
   0.131848,
   0.134302,
   0.135720,
   0.134984,
   0.132501,
   0.130619,
   0.127387,
   0.127172,
   0.126620,
   0.127044,
   0.127554,
   0.130093,
   0.131332,
   0.129336,
   0.129542,
   0.128010,
   0.126712,
   0.127675,
   0.128518,
   0.127393,
   0.126051,
   0.125030,
   0.126556,
   0.124552,
   0.125424,
   0.123059,
   0.126060,
   0.123985,
   0.125528,
   0.128298,
   0.126648,
   0.124560,
   0.123366,
   0.119442,
   0.117140,
   0.118549,
   0.115481,
   0.114814,
   0.117152,
   0.117385,
   0.113316,
   0.109390,
   0.109915,
   0.112466,
   0.113475,
   0.113179,
   0.116125,
   0.116861,
   0.118719,
   0.118864,
   0.120131,
   0.117923,
   0.115992,
   0.119640,
   0.111064,
   0.115537,
   0.115480,
   0.115357,
   0.113275,
   0.117078,
   0.116711,
   0.112719,
   0.112702,
   0.112046,
   0.110687,
   0.109095,
   0.107876,
   0.107634,
   0.108716,
   0.110433,
   0.111838,
   0.111984,
   0.110291,
   0.107642,
   0.105287,
   0.104477,
   0.106054,
   0.109230,
   0.112813,
   0.115606,
   0.116675,
   0.116120,
   0.114300,
   0.111574,
   0.108329,
   0.105062,
   0.102296,
   0.100555,
   0.100171,
   0.100702,
   0.101514,
   0.101972,
   0.101629,
   0.100791,
   0.099951,
   0.099600,
   0.100067,
   0.101013,
   0.101935,
   0.102331,
   0.101844,
   0.100717,
   0.099340,
   0.098101,
   0.097322,
   0.097045,
   0.097246,
   0.097898,
   0.098918,
   0.099987,
   0.100732,
   0.100776,
   0.099894,
   0.098459,
   0.096993,
   0.096019,
   0.095907,
   0.096413,
   0.097143,
   0.097699,
   0.097793,
   0.097564,
   0.097259,
   0.097124,
   0.097318,
   0.097649,
   0.097840,
   0.097612,
   0.096780,
   0.095529,
   0.094136,
   0.092880,
   0.092007,
   0.091633,
   0.091844,
   0.092726,
   0.094243,
   0.095873,
   0.096973,
   0.096900,
   0.095283,
   0.092833,
   0.090537,
   0.089377,
   0.090026,
   0.091912,
   0.094151,
   0.095860,
   0.096345,
   0.095676,
   0.094114,
   0.091919,
   0.089324,
   0.086449,
   0.083388,
   0.080235
};

#endif
