#ifndef _B2II_H_
#define _B2II_H_

/* spectrum for b2ii star           */
/* number of elements = 1895       */

static double _b2ii_lambda[] = {
   1150.000000,
   1155.000000,
   1160.000000,
   1165.000000,
   1170.000000,
   1175.000000,
   1180.000000,
   1185.000000,
   1190.000000,
   1195.000000,
   1200.000000,
   1205.000000,
   1210.000000,
   1215.000000,
   1220.000000,
   1225.000000,
   1230.000000,
   1235.000000,
   1240.000000,
   1245.000000,
   1250.000000,
   1255.000000,
   1260.000000,
   1265.000000,
   1270.000000,
   1275.000000,
   1280.000000,
   1285.000000,
   1290.000000,
   1295.000000,
   1300.000000,
   1305.000000,
   1310.000000,
   1315.000000,
   1320.000000,
   1325.000000,
   1330.000000,
   1335.000000,
   1340.000000,
   1345.000000,
   1350.000000,
   1355.000000,
   1360.000000,
   1365.000000,
   1370.000000,
   1375.000000,
   1380.000000,
   1385.000000,
   1390.000000,
   1395.000000,
   1400.000000,
   1405.000000,
   1410.000000,
   1415.000000,
   1420.000000,
   1425.000000,
   1430.000000,
   1435.000000,
   1440.000000,
   1445.000000,
   1450.000000,
   1455.000000,
   1460.000000,
   1465.000000,
   1470.000000,
   1475.000000,
   1480.000000,
   1485.000000,
   1490.000000,
   1495.000000,
   1500.000000,
   1505.000000,
   1510.000000,
   1515.000000,
   1520.000000,
   1525.000000,
   1530.000000,
   1535.000000,
   1540.000000,
   1545.000000,
   1550.000000,
   1555.000000,
   1560.000000,
   1565.000000,
   1570.000000,
   1575.000000,
   1580.000000,
   1585.000000,
   1590.000000,
   1595.000000,
   1600.000000,
   1605.000000,
   1610.000000,
   1615.000000,
   1620.000000,
   1625.000000,
   1630.000000,
   1635.000000,
   1640.000000,
   1645.000000,
   1650.000000,
   1655.000000,
   1660.000000,
   1665.000000,
   1670.000000,
   1675.000000,
   1680.000000,
   1685.000000,
   1690.000000,
   1695.000000,
   1700.000000,
   1705.000000,
   1710.000000,
   1715.000000,
   1720.000000,
   1725.000000,
   1730.000000,
   1735.000000,
   1740.000000,
   1745.000000,
   1750.000000,
   1755.000000,
   1760.000000,
   1765.000000,
   1770.000000,
   1775.000000,
   1780.000000,
   1785.000000,
   1790.000000,
   1795.000000,
   1800.000000,
   1805.000000,
   1810.000000,
   1815.000000,
   1820.000000,
   1825.000000,
   1830.000000,
   1835.000000,
   1840.000000,
   1845.000000,
   1850.000000,
   1855.000000,
   1860.000000,
   1865.000000,
   1870.000000,
   1875.000000,
   1880.000000,
   1885.000000,
   1890.000000,
   1895.000000,
   1900.000000,
   1905.000000,
   1910.000000,
   1915.000000,
   1920.000000,
   1925.000000,
   1930.000000,
   1935.000000,
   1940.000000,
   1945.000000,
   1950.000000,
   1955.000000,
   1960.000000,
   1965.000000,
   1970.000000,
   1975.000000,
   1980.000000,
   1985.000000,
   1990.000000,
   1995.000000,
   2000.000000,
   2005.000000,
   2010.000000,
   2015.000000,
   2020.000000,
   2025.000000,
   2030.000000,
   2035.000000,
   2040.000000,
   2045.000000,
   2050.000000,
   2055.000000,
   2060.000000,
   2065.000000,
   2070.000000,
   2075.000000,
   2080.000000,
   2085.000000,
   2090.000000,
   2095.000000,
   2100.000000,
   2105.000000,
   2110.000000,
   2115.000000,
   2120.000000,
   2125.000000,
   2130.000000,
   2135.000000,
   2140.000000,
   2145.000000,
   2150.000000,
   2155.000000,
   2160.000000,
   2165.000000,
   2170.000000,
   2175.000000,
   2180.000000,
   2185.000000,
   2190.000000,
   2195.000000,
   2200.000000,
   2205.000000,
   2210.000000,
   2215.000000,
   2220.000000,
   2225.000000,
   2230.000000,
   2235.000000,
   2240.000000,
   2245.000000,
   2250.000000,
   2255.000000,
   2260.000000,
   2265.000000,
   2270.000000,
   2275.000000,
   2280.000000,
   2285.000000,
   2290.000000,
   2295.000000,
   2300.000000,
   2305.000000,
   2310.000000,
   2315.000000,
   2320.000000,
   2325.000000,
   2330.000000,
   2335.000000,
   2340.000000,
   2345.000000,
   2350.000000,
   2355.000000,
   2360.000000,
   2365.000000,
   2370.000000,
   2375.000000,
   2380.000000,
   2385.000000,
   2390.000000,
   2395.000000,
   2400.000000,
   2405.000000,
   2410.000000,
   2415.000000,
   2420.000000,
   2425.000000,
   2430.000000,
   2435.000000,
   2440.000000,
   2445.000000,
   2450.000000,
   2455.000000,
   2460.000000,
   2465.000000,
   2470.000000,
   2475.000000,
   2480.000000,
   2485.000000,
   2490.000000,
   2495.000000,
   2500.000000,
   2505.000000,
   2510.000000,
   2515.000000,
   2520.000000,
   2525.000000,
   2530.000000,
   2535.000000,
   2540.000000,
   2545.000000,
   2550.000000,
   2555.000000,
   2560.000000,
   2565.000000,
   2570.000000,
   2575.000000,
   2580.000000,
   2585.000000,
   2590.000000,
   2595.000000,
   2600.000000,
   2605.000000,
   2610.000000,
   2615.000000,
   2620.000000,
   2625.000000,
   2630.000000,
   2635.000000,
   2640.000000,
   2645.000000,
   2650.000000,
   2655.000000,
   2660.000000,
   2665.000000,
   2670.000000,
   2675.000000,
   2680.000000,
   2685.000000,
   2690.000000,
   2695.000000,
   2700.000000,
   2705.000000,
   2710.000000,
   2715.000000,
   2720.000000,
   2725.000000,
   2730.000000,
   2735.000000,
   2740.000000,
   2745.000000,
   2750.000000,
   2755.000000,
   2760.000000,
   2765.000000,
   2770.000000,
   2775.000000,
   2780.000000,
   2785.000000,
   2790.000000,
   2795.000000,
   2800.000000,
   2805.000000,
   2810.000000,
   2815.000000,
   2820.000000,
   2825.000000,
   2830.000000,
   2835.000000,
   2840.000000,
   2845.000000,
   2850.000000,
   2855.000000,
   2860.000000,
   2865.000000,
   2870.000000,
   2875.000000,
   2880.000000,
   2885.000000,
   2890.000000,
   2895.000000,
   2900.000000,
   2905.000000,
   2910.000000,
   2915.000000,
   2920.000000,
   2925.000000,
   2930.000000,
   2935.000000,
   2940.000000,
   2945.000000,
   2950.000000,
   2955.000000,
   2960.000000,
   2965.000000,
   2970.000000,
   2975.000000,
   2980.000000,
   2985.000000,
   2990.000000,
   2995.000000,
   3000.000000,
   3005.000000,
   3010.000000,
   3015.000000,
   3020.000000,
   3025.000000,
   3030.000000,
   3035.000000,
   3040.000000,
   3045.000000,
   3050.000000,
   3055.000000,
   3060.000000,
   3065.000000,
   3070.000000,
   3075.000000,
   3080.000000,
   3085.000000,
   3090.000000,
   3095.000000,
   3100.000000,
   3105.000000,
   3110.000000,
   3115.000000,
   3120.000000,
   3125.000000,
   3130.000000,
   3135.000000,
   3140.000000,
   3145.000000,
   3150.000000,
   3155.000000,
   3160.000000,
   3165.000000,
   3170.000000,
   3175.000000,
   3180.000000,
   3185.000000,
   3190.000000,
   3195.000000,
   3200.000000,
   3205.000000,
   3210.000000,
   3215.000000,
   3220.000000,
   3225.000000,
   3230.000000,
   3235.000000,
   3240.000000,
   3245.000000,
   3250.000000,
   3255.000000,
   3260.000000,
   3265.000000,
   3270.000000,
   3275.000000,
   3280.000000,
   3285.000000,
   3290.000000,
   3295.000000,
   3300.000000,
   3305.000000,
   3310.000000,
   3315.000000,
   3320.000000,
   3325.000000,
   3330.000000,
   3335.000000,
   3340.000000,
   3345.000000,
   3350.000000,
   3355.000000,
   3360.000000,
   3365.000000,
   3370.000000,
   3375.000000,
   3380.000000,
   3385.000000,
   3390.000000,
   3395.000000,
   3400.000000,
   3405.000000,
   3410.000000,
   3415.000000,
   3420.000000,
   3425.000000,
   3430.000000,
   3435.000000,
   3440.000000,
   3445.000000,
   3450.000000,
   3455.000000,
   3460.000000,
   3465.000000,
   3470.000000,
   3475.000000,
   3480.000000,
   3485.000000,
   3490.000000,
   3495.000000,
   3500.000000,
   3505.000000,
   3510.000000,
   3515.000000,
   3520.000000,
   3525.000000,
   3530.000000,
   3535.000000,
   3540.000000,
   3545.000000,
   3550.000000,
   3555.000000,
   3560.000000,
   3565.000000,
   3570.000000,
   3575.000000,
   3580.000000,
   3585.000000,
   3590.000000,
   3595.000000,
   3600.000000,
   3605.000000,
   3610.000000,
   3615.000000,
   3620.000000,
   3625.000000,
   3630.000000,
   3635.000000,
   3640.000000,
   3645.000000,
   3650.000000,
   3655.000000,
   3660.000000,
   3665.000000,
   3670.000000,
   3675.000000,
   3680.000000,
   3685.000000,
   3690.000000,
   3695.000000,
   3700.000000,
   3705.000000,
   3710.000000,
   3715.000000,
   3720.000000,
   3725.000000,
   3730.000000,
   3735.000000,
   3740.000000,
   3745.000000,
   3750.000000,
   3755.000000,
   3760.000000,
   3765.000000,
   3770.000000,
   3775.000000,
   3780.000000,
   3785.000000,
   3790.000000,
   3795.000000,
   3800.000000,
   3805.000000,
   3810.000000,
   3815.000000,
   3820.000000,
   3825.000000,
   3830.000000,
   3835.000000,
   3840.000000,
   3845.000000,
   3850.000000,
   3855.000000,
   3860.000000,
   3865.000000,
   3870.000000,
   3875.000000,
   3880.000000,
   3885.000000,
   3890.000000,
   3895.000000,
   3900.000000,
   3905.000000,
   3910.000000,
   3915.000000,
   3920.000000,
   3925.000000,
   3930.000000,
   3935.000000,
   3940.000000,
   3945.000000,
   3950.000000,
   3955.000000,
   3960.000000,
   3965.000000,
   3970.000000,
   3975.000000,
   3980.000000,
   3985.000000,
   3990.000000,
   3995.000000,
   4000.000000,
   4005.000000,
   4010.000000,
   4015.000000,
   4020.000000,
   4025.000000,
   4030.000000,
   4035.000000,
   4040.000000,
   4045.000000,
   4050.000000,
   4055.000000,
   4060.000000,
   4065.000000,
   4070.000000,
   4075.000000,
   4080.000000,
   4085.000000,
   4090.000000,
   4095.000000,
   4100.000000,
   4105.000000,
   4110.000000,
   4115.000000,
   4120.000000,
   4125.000000,
   4130.000000,
   4135.000000,
   4140.000000,
   4145.000000,
   4150.000000,
   4155.000000,
   4160.000000,
   4165.000000,
   4170.000000,
   4175.000000,
   4180.000000,
   4185.000000,
   4190.000000,
   4195.000000,
   4200.000000,
   4205.000000,
   4210.000000,
   4215.000000,
   4220.000000,
   4225.000000,
   4230.000000,
   4235.000000,
   4240.000000,
   4245.000000,
   4250.000000,
   4255.000000,
   4260.000000,
   4265.000000,
   4270.000000,
   4275.000000,
   4280.000000,
   4285.000000,
   4290.000000,
   4295.000000,
   4300.000000,
   4305.000000,
   4310.000000,
   4315.000000,
   4320.000000,
   4325.000000,
   4330.000000,
   4335.000000,
   4340.000000,
   4345.000000,
   4350.000000,
   4355.000000,
   4360.000000,
   4365.000000,
   4370.000000,
   4375.000000,
   4380.000000,
   4385.000000,
   4390.000000,
   4395.000000,
   4400.000000,
   4405.000000,
   4410.000000,
   4415.000000,
   4420.000000,
   4425.000000,
   4430.000000,
   4435.000000,
   4440.000000,
   4445.000000,
   4450.000000,
   4455.000000,
   4460.000000,
   4465.000000,
   4470.000000,
   4475.000000,
   4480.000000,
   4485.000000,
   4490.000000,
   4495.000000,
   4500.000000,
   4505.000000,
   4510.000000,
   4515.000000,
   4520.000000,
   4525.000000,
   4530.000000,
   4535.000000,
   4540.000000,
   4545.000000,
   4550.000000,
   4555.000000,
   4560.000000,
   4565.000000,
   4570.000000,
   4575.000000,
   4580.000000,
   4585.000000,
   4590.000000,
   4595.000000,
   4600.000000,
   4605.000000,
   4610.000000,
   4615.000000,
   4620.000000,
   4625.000000,
   4630.000000,
   4635.000000,
   4640.000000,
   4645.000000,
   4650.000000,
   4655.000000,
   4660.000000,
   4665.000000,
   4670.000000,
   4675.000000,
   4680.000000,
   4685.000000,
   4690.000000,
   4695.000000,
   4700.000000,
   4705.000000,
   4710.000000,
   4715.000000,
   4720.000000,
   4725.000000,
   4730.000000,
   4735.000000,
   4740.000000,
   4745.000000,
   4750.000000,
   4755.000000,
   4760.000000,
   4765.000000,
   4770.000000,
   4775.000000,
   4780.000000,
   4785.000000,
   4790.000000,
   4795.000000,
   4800.000000,
   4805.000000,
   4810.000000,
   4815.000000,
   4820.000000,
   4825.000000,
   4830.000000,
   4835.000000,
   4840.000000,
   4845.000000,
   4850.000000,
   4855.000000,
   4860.000000,
   4865.000000,
   4870.000000,
   4875.000000,
   4880.000000,
   4885.000000,
   4890.000000,
   4895.000000,
   4900.000000,
   4905.000000,
   4910.000000,
   4915.000000,
   4920.000000,
   4925.000000,
   4930.000000,
   4935.000000,
   4940.000000,
   4945.000000,
   4950.000000,
   4955.000000,
   4960.000000,
   4965.000000,
   4970.000000,
   4975.000000,
   4980.000000,
   4985.000000,
   4990.000000,
   4995.000000,
   5000.000000,
   5005.000000,
   5010.000000,
   5015.000000,
   5020.000000,
   5025.000000,
   5030.000000,
   5035.000000,
   5040.000000,
   5045.000000,
   5050.000000,
   5055.000000,
   5060.000000,
   5065.000000,
   5070.000000,
   5075.000000,
   5080.000000,
   5085.000000,
   5090.000000,
   5095.000000,
   5100.000000,
   5105.000000,
   5110.000000,
   5115.000000,
   5120.000000,
   5125.000000,
   5130.000000,
   5135.000000,
   5140.000000,
   5145.000000,
   5150.000000,
   5155.000000,
   5160.000000,
   5165.000000,
   5170.000000,
   5175.000000,
   5180.000000,
   5185.000000,
   5190.000000,
   5195.000000,
   5200.000000,
   5205.000000,
   5210.000000,
   5215.000000,
   5220.000000,
   5225.000000,
   5230.000000,
   5235.000000,
   5240.000000,
   5245.000000,
   5250.000000,
   5255.000000,
   5260.000000,
   5265.000000,
   5270.000000,
   5275.000000,
   5280.000000,
   5285.000000,
   5290.000000,
   5295.000000,
   5300.000000,
   5305.000000,
   5310.000000,
   5315.000000,
   5320.000000,
   5325.000000,
   5330.000000,
   5335.000000,
   5340.000000,
   5345.000000,
   5350.000000,
   5355.000000,
   5360.000000,
   5365.000000,
   5370.000000,
   5375.000000,
   5380.000000,
   5385.000000,
   5390.000000,
   5395.000000,
   5400.000000,
   5405.000000,
   5410.000000,
   5415.000000,
   5420.000000,
   5425.000000,
   5430.000000,
   5435.000000,
   5440.000000,
   5445.000000,
   5450.000000,
   5455.000000,
   5460.000000,
   5465.000000,
   5470.000000,
   5475.000000,
   5480.000000,
   5485.000000,
   5490.000000,
   5495.000000,
   5500.000000,
   5505.000000,
   5510.000000,
   5515.000000,
   5520.000000,
   5525.000000,
   5530.000000,
   5535.000000,
   5540.000000,
   5545.000000,
   5550.000000,
   5555.000000,
   5560.000000,
   5565.000000,
   5570.000000,
   5575.000000,
   5580.000000,
   5585.000000,
   5590.000000,
   5595.000000,
   5600.000000,
   5605.000000,
   5610.000000,
   5615.000000,
   5620.000000,
   5625.000000,
   5630.000000,
   5635.000000,
   5640.000000,
   5645.000000,
   5650.000000,
   5655.000000,
   5660.000000,
   5665.000000,
   5670.000000,
   5675.000000,
   5680.000000,
   5685.000000,
   5690.000000,
   5695.000000,
   5700.000000,
   5705.000000,
   5710.000000,
   5715.000000,
   5720.000000,
   5725.000000,
   5730.000000,
   5735.000000,
   5740.000000,
   5745.000000,
   5750.000000,
   5755.000000,
   5760.000000,
   5765.000000,
   5770.000000,
   5775.000000,
   5780.000000,
   5785.000000,
   5790.000000,
   5795.000000,
   5800.000000,
   5805.000000,
   5810.000000,
   5815.000000,
   5820.000000,
   5825.000000,
   5830.000000,
   5835.000000,
   5840.000000,
   5845.000000,
   5850.000000,
   5855.000000,
   5860.000000,
   5865.000000,
   5870.000000,
   5875.000000,
   5880.000000,
   5885.000000,
   5890.000000,
   5895.000000,
   5900.000000,
   5905.000000,
   5910.000000,
   5915.000000,
   5920.000000,
   5925.000000,
   5930.000000,
   5935.000000,
   5940.000000,
   5945.000000,
   5950.000000,
   5955.000000,
   5960.000000,
   5965.000000,
   5970.000000,
   5975.000000,
   5980.000000,
   5985.000000,
   5990.000000,
   5995.000000,
   6000.000000,
   6005.000000,
   6010.000000,
   6015.000000,
   6020.000000,
   6025.000000,
   6030.000000,
   6035.000000,
   6040.000000,
   6045.000000,
   6050.000000,
   6055.000000,
   6060.000000,
   6065.000000,
   6070.000000,
   6075.000000,
   6080.000000,
   6085.000000,
   6090.000000,
   6095.000000,
   6100.000000,
   6105.000000,
   6110.000000,
   6115.000000,
   6120.000000,
   6125.000000,
   6130.000000,
   6135.000000,
   6140.000000,
   6145.000000,
   6150.000000,
   6155.000000,
   6160.000000,
   6165.000000,
   6170.000000,
   6175.000000,
   6180.000000,
   6185.000000,
   6190.000000,
   6195.000000,
   6200.000000,
   6205.000000,
   6210.000000,
   6215.000000,
   6220.000000,
   6225.000000,
   6230.000000,
   6235.000000,
   6240.000000,
   6245.000000,
   6250.000000,
   6255.000000,
   6260.000000,
   6265.000000,
   6270.000000,
   6275.000000,
   6280.000000,
   6285.000000,
   6290.000000,
   6295.000000,
   6300.000000,
   6305.000000,
   6310.000000,
   6315.000000,
   6320.000000,
   6325.000000,
   6330.000000,
   6335.000000,
   6340.000000,
   6345.000000,
   6350.000000,
   6355.000000,
   6360.000000,
   6365.000000,
   6370.000000,
   6375.000000,
   6380.000000,
   6385.000000,
   6390.000000,
   6395.000000,
   6400.000000,
   6405.000000,
   6410.000000,
   6415.000000,
   6420.000000,
   6425.000000,
   6430.000000,
   6435.000000,
   6440.000000,
   6445.000000,
   6450.000000,
   6455.000000,
   6460.000000,
   6465.000000,
   6470.000000,
   6475.000000,
   6480.000000,
   6485.000000,
   6490.000000,
   6495.000000,
   6500.000000,
   6505.000000,
   6510.000000,
   6515.000000,
   6520.000000,
   6525.000000,
   6530.000000,
   6535.000000,
   6540.000000,
   6545.000000,
   6550.000000,
   6555.000000,
   6560.000000,
   6565.000000,
   6570.000000,
   6575.000000,
   6580.000000,
   6585.000000,
   6590.000000,
   6595.000000,
   6600.000000,
   6605.000000,
   6610.000000,
   6615.000000,
   6620.000000,
   6625.000000,
   6630.000000,
   6635.000000,
   6640.000000,
   6645.000000,
   6650.000000,
   6655.000000,
   6660.000000,
   6665.000000,
   6670.000000,
   6675.000000,
   6680.000000,
   6685.000000,
   6690.000000,
   6695.000000,
   6700.000000,
   6705.000000,
   6710.000000,
   6715.000000,
   6720.000000,
   6725.000000,
   6730.000000,
   6735.000000,
   6740.000000,
   6745.000000,
   6750.000000,
   6755.000000,
   6760.000000,
   6765.000000,
   6770.000000,
   6775.000000,
   6780.000000,
   6785.000000,
   6790.000000,
   6795.000000,
   6800.000000,
   6805.000000,
   6810.000000,
   6815.000000,
   6820.000000,
   6825.000000,
   6830.000000,
   6835.000000,
   6840.000000,
   6845.000000,
   6850.000000,
   6855.000000,
   6860.000000,
   6865.000000,
   6870.000000,
   6875.000000,
   6880.000000,
   6885.000000,
   6890.000000,
   6895.000000,
   6900.000000,
   6905.000000,
   6910.000000,
   6915.000000,
   6920.000000,
   6925.000000,
   6930.000000,
   6935.000000,
   6940.000000,
   6945.000000,
   6950.000000,
   6955.000000,
   6960.000000,
   6965.000000,
   6970.000000,
   6975.000000,
   6980.000000,
   6985.000000,
   6990.000000,
   6995.000000,
   7000.000000,
   7005.000000,
   7010.000000,
   7015.000000,
   7020.000000,
   7025.000000,
   7030.000000,
   7035.000000,
   7040.000000,
   7045.000000,
   7050.000000,
   7055.000000,
   7060.000000,
   7065.000000,
   7070.000000,
   7075.000000,
   7080.000000,
   7085.000000,
   7090.000000,
   7095.000000,
   7100.000000,
   7105.000000,
   7110.000000,
   7115.000000,
   7120.000000,
   7125.000000,
   7130.000000,
   7135.000000,
   7140.000000,
   7145.000000,
   7150.000000,
   7155.000000,
   7160.000000,
   7165.000000,
   7170.000000,
   7175.000000,
   7180.000000,
   7185.000000,
   7190.000000,
   7195.000000,
   7200.000000,
   7205.000000,
   7210.000000,
   7215.000000,
   7220.000000,
   7225.000000,
   7230.000000,
   7235.000000,
   7240.000000,
   7245.000000,
   7250.000000,
   7255.000000,
   7260.000000,
   7265.000000,
   7270.000000,
   7275.000000,
   7280.000000,
   7285.000000,
   7290.000000,
   7295.000000,
   7300.000000,
   7305.000000,
   7310.000000,
   7315.000000,
   7320.000000,
   7325.000000,
   7330.000000,
   7335.000000,
   7340.000000,
   7345.000000,
   7350.000000,
   7355.000000,
   7360.000000,
   7365.000000,
   7370.000000,
   7375.000000,
   7380.000000,
   7385.000000,
   7390.000000,
   7395.000000,
   7400.000000,
   7405.000000,
   7410.000000,
   7415.000000,
   7420.000000,
   7425.000000,
   7430.000000,
   7435.000000,
   7440.000000,
   7445.000000,
   7450.000000,
   7455.000000,
   7460.000000,
   7465.000000,
   7470.000000,
   7475.000000,
   7480.000000,
   7485.000000,
   7490.000000,
   7495.000000,
   7500.000000,
   7505.000000,
   7510.000000,
   7515.000000,
   7520.000000,
   7525.000000,
   7530.000000,
   7535.000000,
   7540.000000,
   7545.000000,
   7550.000000,
   7555.000000,
   7560.000000,
   7565.000000,
   7570.000000,
   7575.000000,
   7580.000000,
   7585.000000,
   7590.000000,
   7595.000000,
   7600.000000,
   7605.000000,
   7610.000000,
   7615.000000,
   7620.000000,
   7625.000000,
   7630.000000,
   7635.000000,
   7640.000000,
   7645.000000,
   7650.000000,
   7655.000000,
   7660.000000,
   7665.000000,
   7670.000000,
   7675.000000,
   7680.000000,
   7685.000000,
   7690.000000,
   7695.000000,
   7700.000000,
   7705.000000,
   7710.000000,
   7715.000000,
   7720.000000,
   7725.000000,
   7730.000000,
   7735.000000,
   7740.000000,
   7745.000000,
   7750.000000,
   7755.000000,
   7760.000000,
   7765.000000,
   7770.000000,
   7775.000000,
   7780.000000,
   7785.000000,
   7790.000000,
   7795.000000,
   7800.000000,
   7805.000000,
   7810.000000,
   7815.000000,
   7820.000000,
   7825.000000,
   7830.000000,
   7835.000000,
   7840.000000,
   7845.000000,
   7850.000000,
   7855.000000,
   7860.000000,
   7865.000000,
   7870.000000,
   7875.000000,
   7880.000000,
   7885.000000,
   7890.000000,
   7895.000000,
   7900.000000,
   7905.000000,
   7910.000000,
   7915.000000,
   7920.000000,
   7925.000000,
   7930.000000,
   7935.000000,
   7940.000000,
   7945.000000,
   7950.000000,
   7955.000000,
   7960.000000,
   7965.000000,
   7970.000000,
   7975.000000,
   7980.000000,
   7985.000000,
   7990.000000,
   7995.000000,
   8000.000000,
   8005.000000,
   8010.000000,
   8015.000000,
   8020.000000,
   8025.000000,
   8030.000000,
   8035.000000,
   8040.000000,
   8045.000000,
   8050.000000,
   8055.000000,
   8060.000000,
   8065.000000,
   8070.000000,
   8075.000000,
   8080.000000,
   8085.000000,
   8090.000000,
   8095.000000,
   8100.000000,
   8105.000000,
   8110.000000,
   8115.000000,
   8120.000000,
   8125.000000,
   8130.000000,
   8135.000000,
   8140.000000,
   8145.000000,
   8150.000000,
   8155.000000,
   8160.000000,
   8165.000000,
   8170.000000,
   8175.000000,
   8180.000000,
   8185.000000,
   8190.000000,
   8195.000000,
   8200.000000,
   8205.000000,
   8210.000000,
   8215.000000,
   8220.000000,
   8225.000000,
   8230.000000,
   8235.000000,
   8240.000000,
   8245.000000,
   8250.000000,
   8255.000000,
   8260.000000,
   8265.000000,
   8270.000000,
   8275.000000,
   8280.000000,
   8285.000000,
   8290.000000,
   8295.000000,
   8300.000000,
   8305.000000,
   8310.000000,
   8315.000000,
   8320.000000,
   8325.000000,
   8330.000000,
   8335.000000,
   8340.000000,
   8345.000000,
   8350.000000,
   8355.000000,
   8360.000000,
   8365.000000,
   8370.000000,
   8375.000000,
   8380.000000,
   8385.000000,
   8390.000000,
   8395.000000,
   8400.000000,
   8405.000000,
   8410.000000,
   8415.000000,
   8420.000000,
   8425.000000,
   8430.000000,
   8435.000000,
   8440.000000,
   8445.000000,
   8450.000000,
   8455.000000,
   8460.000000,
   8465.000000,
   8470.000000,
   8475.000000,
   8480.000000,
   8485.000000,
   8490.000000,
   8495.000000,
   8500.000000,
   8505.000000,
   8510.000000,
   8515.000000,
   8520.000000,
   8525.000000,
   8530.000000,
   8535.000000,
   8540.000000,
   8545.000000,
   8550.000000,
   8555.000000,
   8560.000000,
   8565.000000,
   8570.000000,
   8575.000000,
   8580.000000,
   8585.000000,
   8590.000000,
   8595.000000,
   8600.000000,
   8605.000000,
   8610.000000,
   8615.000000,
   8620.000000,
   8625.000000,
   8630.000000,
   8635.000000,
   8640.000000,
   8645.000000,
   8650.000000,
   8655.000000,
   8660.000000,
   8665.000000,
   8670.000000,
   8675.000000,
   8680.000000,
   8685.000000,
   8690.000000,
   8695.000000,
   8700.000000,
   8705.000000,
   8710.000000,
   8715.000000,
   8720.000000,
   8725.000000,
   8730.000000,
   8735.000000,
   8740.000000,
   8745.000000,
   8750.000000,
   8755.000000,
   8760.000000,
   8765.000000,
   8770.000000,
   8775.000000,
   8780.000000,
   8785.000000,
   8790.000000,
   8795.000000,
   8800.000000,
   8805.000000,
   8810.000000,
   8815.000000,
   8820.000000,
   8825.000000,
   8830.000000,
   8835.000000,
   8840.000000,
   8845.000000,
   8850.000000,
   8855.000000,
   8860.000000,
   8865.000000,
   8870.000000,
   8875.000000,
   8880.000000,
   8885.000000,
   8890.000000,
   8895.000000,
   8900.000000,
   8905.000000,
   8910.000000,
   8915.000000,
   8920.000000,
   8925.000000,
   8930.000000,
   8935.000000,
   8940.000000,
   8945.000000,
   8950.000000,
   8955.000000,
   8960.000000,
   8965.000000,
   8970.000000,
   8975.000000,
   8980.000000,
   8985.000000,
   8990.000000,
   8995.000000,
   9000.000000,
   9005.000000,
   9010.000000,
   9015.000000,
   9020.000000,
   9025.000000,
   9030.000000,
   9035.000000,
   9040.000000,
   9045.000000,
   9050.000000,
   9055.000000,
   9060.000000,
   9065.000000,
   9070.000000,
   9075.000000,
   9080.000000,
   9085.000000,
   9090.000000,
   9095.000000,
   9100.000000,
   9105.000000,
   9110.000000,
   9115.000000,
   9120.000000,
   9125.000000,
   9130.000000,
   9135.000000,
   9140.000000,
   9145.000000,
   9150.000000,
   9155.000000,
   9160.000000,
   9165.000000,
   9170.000000,
   9175.000000,
   9180.000000,
   9185.000000,
   9190.000000,
   9195.000000,
   9200.000000,
   9205.000000,
   9210.000000,
   9215.000000,
   9220.000000,
   9225.000000,
   9230.000000,
   9235.000000,
   9240.000000,
   9245.000000,
   9250.000000,
   9255.000000,
   9260.000000,
   9265.000000,
   9270.000000,
   9275.000000,
   9280.000000,
   9285.000000,
   9290.000000,
   9295.000000,
   9300.000000,
   9305.000000,
   9310.000000,
   9315.000000,
   9320.000000,
   9325.000000,
   9330.000000,
   9335.000000,
   9340.000000,
   9345.000000,
   9350.000000,
   9355.000000,
   9360.000000,
   9365.000000,
   9370.000000,
   9375.000000,
   9380.000000,
   9385.000000,
   9390.000000,
   9395.000000,
   9400.000000,
   9405.000000,
   9410.000000,
   9415.000000,
   9420.000000,
   9425.000000,
   9430.000000,
   9435.000000,
   9440.000000,
   9445.000000,
   9450.000000,
   9455.000000,
   9460.000000,
   9465.000000,
   9470.000000,
   9475.000000,
   9480.000000,
   9485.000000,
   9490.000000,
   9495.000000,
   9500.000000,
   9505.000000,
   9510.000000,
   9515.000000,
   9520.000000,
   9525.000000,
   9530.000000,
   9535.000000,
   9540.000000,
   9545.000000,
   9550.000000,
   9555.000000,
   9560.000000,
   9565.000000,
   9570.000000,
   9575.000000,
   9580.000000,
   9585.000000,
   9590.000000,
   9595.000000,
   9600.000000,
   9605.000000,
   9610.000000,
   9615.000000,
   9620.000000,
   9625.000000,
   9630.000000,
   9635.000000,
   9640.000000,
   9645.000000,
   9650.000000,
   9655.000000,
   9660.000000,
   9665.000000,
   9670.000000,
   9675.000000,
   9680.000000,
   9685.000000,
   9690.000000,
   9695.000000,
   9700.000000,
   9705.000000,
   9710.000000,
   9715.000000,
   9720.000000,
   9725.000000,
   9730.000000,
   9735.000000,
   9740.000000,
   9745.000000,
   9750.000000,
   9755.000000,
   9760.000000,
   9765.000000,
   9770.000000,
   9775.000000,
   9780.000000,
   9785.000000,
   9790.000000,
   9795.000000,
   9800.000000,
   9805.000000,
   9810.000000,
   9815.000000,
   9820.000000,
   9825.000000,
   9830.000000,
   9835.000000,
   9840.000000,
   9845.000000,
   9850.000000,
   9855.000000,
   9860.000000,
   9865.000000,
   9870.000000,
   9875.000000,
   9880.000000,
   9885.000000,
   9890.000000,
   9895.000000,
   9900.000000,
   9905.000000,
   9910.000000,
   9915.000000,
   9920.000000,
   9925.000000,
   9930.000000,
   9935.000000,
   9940.000000,
   9945.000000,
   9950.000000,
   9955.000000,
   9960.000000,
   9965.000000,
   9970.000000,
   9975.000000,
   9980.000000,
   9985.000000,
   9990.000000,
   9995.000000,
   10000.000000,
   10005.000000,
   10010.000000,
   10015.000000,
   10020.000000,
   10025.000000,
   10030.000000,
   10035.000000,
   10040.000000,
   10045.000000,
   10050.000000,
   10055.000000,
   10060.000000,
   10065.000000,
   10070.000000,
   10075.000000,
   10080.000000,
   10085.000000,
   10090.000000,
   10095.000000,
   10100.000000,
   10105.000000,
   10110.000000,
   10115.000000,
   10120.000000,
   10125.000000,
   10130.000000,
   10135.000000,
   10140.000000,
   10145.000000,
   10150.000000,
   10155.000000,
   10160.000000,
   10165.000000,
   10170.000000,
   10175.000000,
   10180.000000,
   10185.000000,
   10190.000000,
   10195.000000,
   10200.000000,
   10205.000000,
   10210.000000,
   10215.000000,
   10220.000000,
   10225.000000,
   10230.000000,
   10235.000000,
   10240.000000,
   10245.000000,
   10250.000000,
   10255.000000,
   10260.000000,
   10265.000000,
   10270.000000,
   10275.000000,
   10280.000000,
   10285.000000,
   10290.000000,
   10295.000000,
   10300.000000,
   10305.000000,
   10310.000000,
   10315.000000,
   10320.000000,
   10325.000000,
   10330.000000,
   10335.000000,
   10340.000000,
   10345.000000,
   10350.000000,
   10355.000000,
   10360.000000,
   10365.000000,
   10370.000000,
   10375.000000,
   10380.000000,
   10385.000000,
   10390.000000,
   10395.000000,
   10400.000000,
   10405.000000,
   10410.000000,
   10415.000000,
   10420.000000,
   10425.000000,
   10430.000000,
   10435.000000,
   10440.000000,
   10445.000000,
   10450.000000,
   10455.000000,
   10460.000000,
   10465.000000,
   10470.000000,
   10475.000000,
   10480.000000,
   10485.000000,
   10490.000000,
   10495.000000,
   10500.000000,
   10505.000000,
   10510.000000,
   10515.000000,
   10520.000000,
   10525.000000,
   10530.000000,
   10535.000000,
   10540.000000,
   10545.000000,
   10550.000000,
   10555.000000,
   10560.000000,
   10565.000000,
   10570.000000,
   10575.000000,
   10580.000000,
   10585.000000,
   10590.000000,
   10595.000000,
   10600.000000,
   10605.000000,
   10610.000000,
   10615.000000,
   10620.000000
};

static double _b2ii_flux[] = {
   18.542936,
   14.136545,
   11.919143,
   11.779259,
   9.762265,
   7.220887,
   8.682664,
   9.957264,
   8.457760,
   6.953805,
   6.227396,
   4.113087,
   2.305570,
   1.430713,
   2.270001,
   4.932450,
   7.242015,
   8.517392,
   10.999514,
   12.740422,
   11.770794,
   11.528381,
   11.624524,
   12.365453,
   13.371647,
   13.174253,
   13.423655,
   13.620823,
   13.066373,
   11.582065,
   10.503545,
   11.337629,
   13.339665,
   13.905221,
   13.874176,
   13.134554,
   12.728038,
   12.122665,
   12.642124,
   13.045950,
   13.440733,
   13.362515,
   13.376679,
   12.916781,
   12.877142,
   12.522546,
   11.733785,
   10.257283,
   8.399930,
   7.539846,
   8.454216,
   11.062323,
   11.937019,
   11.267971,
   10.752566,
   10.699656,
   10.857351,
   11.328670,
   11.648527,
   11.664165,
   11.602025,
   11.425522,
   11.636420,
   11.678591,
   11.396524,
   11.613752,
   11.681073,
   11.800900,
   12.218400,
   11.728424,
   10.859453,
   10.490219,
   10.932198,
   10.496234,
   10.712584,
   10.094133,
   8.887795,
   7.928061,
   7.030559,
   6.091876,
   7.285466,
   9.459193,
   9.293335,
   8.596461,
   8.875094,
   9.207455,
   9.200174,
   9.720006,
   10.145975,
   9.652195,
   8.956169,
   8.448747,
   8.054263,
   8.048204,
   8.223859,
   8.387957,
   8.344771,
   8.695971,
   9.086147,
   9.523942,
   9.577396,
   8.889486,
   8.393157,
   8.724938,
   8.785401,
   8.820661,
   9.523176,
   9.644064,
   9.313076,
   9.005668,
   8.984389,
   8.759663,
   8.400834,
   8.120222,
   7.646191,
   7.774899,
   8.537568,
   9.056209,
   9.058690,
   8.901229,
   8.763890,
   8.848495,
   9.296968,
   9.215663,
   8.972475,
   8.646343,
   8.659920,
   8.536419,
   7.614342,
   7.959579,
   8.987189,
   8.721100,
   8.252550,
   8.276275,
   8.504154,
   8.486590,
   8.353345,
   8.316643,
   7.847392,
   7.352848,
   7.067659,
   6.927184,
   7.108367,
   7.265840,
   7.406098,
   7.448066,
   7.210659,
   6.549748,
   6.208361,
   6.230752,
   6.417120,
   6.359452,
   6.272472,
   6.016985,
   5.804446,
   5.619148,
   5.808922,
   6.280735,
   6.257058,
   6.236588,
   6.096031,
   5.794066,
   5.552063,
   5.309665,
   5.600739,
   6.318017,
   6.178501,
   6.040146,
   5.318582,
   4.706917,
   4.847108,
   5.117179,
   5.138269,
   5.291081,
   5.439746,
   5.433032,
   5.183762,
   5.024814,
   5.165782,
   5.020845,
   4.993746,
   4.646531,
   4.241974,
   4.180802,
   4.275816,
   4.647382,
   4.755407,
   4.520142,
   4.415207,
   4.135436,
   3.961527,
   3.986300,
   4.089375,
   4.273704,
   4.368634,
   4.272621,
   4.208490,
   4.058974,
   3.834387,
   3.863133,
   3.547711,
   3.931473,
   3.925395,
   3.662981,
   3.699032,
   3.523032,
   3.546777,
   3.742956,
   3.910283,
   3.995132,
   4.009558,
   3.812891,
   3.554938,
   3.327727,
   3.302611,
   3.468048,
   3.304319,
   3.336909,
   3.315953,
   3.195403,
   3.539948,
   3.908410,
   4.010441,
   3.770591,
   3.629416,
   3.851817,
   3.768367,
   3.831860,
   3.930554,
   3.927634,
   3.743139,
   3.811755,
   4.135800,
   4.407317,
   4.393211,
   4.190468,
   4.191853,
   4.378320,
   4.329858,
   4.385186,
   4.467404,
   4.598412,
   4.559661,
   4.476523,
   4.622719,
   4.774196,
   4.593729,
   4.601943,
   4.648300,
   4.640501,
   4.596341,
   4.611214,
   4.572929,
   4.584638,
   4.875064,
   4.822049,
   4.997796,
   5.029665,
   5.079566,
   5.247103,
   5.294883,
   5.424548,
   5.566860,
   5.624485,
   5.466976,
   5.162396,
   5.080262,
   5.433449,
   5.229093,
   5.193369,
   5.370658,
   5.472531,
   5.389216,
   5.314604,
   5.214188,
   5.240231,
   5.464796,
   5.663929,
   5.423917,
   5.289586,
   5.318153,
   5.352921,
   5.328529,
   5.452967,
   5.625252,
   5.697624,
   5.112537,
   4.717954,
   5.008236,
   5.457837,
   5.525336,
   5.413980,
   5.429650,
   5.583526,
   5.497127,
   5.690047,
   5.803455,
   5.801643,
   5.836733,
   5.721546,
   5.783431,
   5.951793,
   5.814925,
   5.674065,
   5.628393,
   5.629070,
   5.759202,
   5.882964,
   5.916930,
   5.578369,
   5.358015,
   5.452516,
   5.651389,
   5.519418,
   5.434038,
   5.354515,
   5.445206,
   5.641909,
   5.643839,
   5.473291,
   5.610202,
   5.548785,
   5.422689,
   5.468332,
   5.475341,
   5.501182,
   5.581436,
   5.484647,
   5.308837,
   5.160090,
   5.014067,
   5.120607,
   5.493486,
   5.664132,
   5.974752,
   5.709206,
   5.391561,
   5.364685,
   5.477468,
   5.510857,
   5.425962,
   5.275211,
   5.302787,
   5.449719,
   5.435294,
   5.489979,
   5.446650,
   5.464684,
   5.460788,
   5.618126,
   5.551094,
   5.509744,
   5.540871,
   5.616774,
   5.631705,
   5.509925,
   5.373263,
   5.359009,
   5.352992,
   5.403937,
   5.407618,
   5.483195,
   5.616919,
   5.482148,
   5.433568,
   5.554985,
   5.506912,
   5.336886,
   5.285298,
   5.261422,
   5.237612,
   5.073892,
   5.192192,
   5.153139,
   5.051691,
   4.899586,
   4.772616,
   5.030966,
   5.129155,
   5.074172,
   4.984714,
   5.088811,
   4.988318,
   4.985002,
   5.121455,
   5.256927,
   5.309022,
   5.279019,
   5.326923,
   5.228771,
   5.112443,
   5.086141,
   5.099545,
   5.174160,
   5.122864,
   5.160694,
   5.195555,
   5.115995,
   5.107400,
   5.105506,
   5.159288,
   5.100055,
   5.046724,
   5.117314,
   5.179922,
   5.120020,
   4.954012,
   5.023386,
   5.261084,
   4.871056,
   4.742268,
   4.723442,
   4.705264,
   4.687598,
   4.670311,
   4.653269,
   4.636336,
   4.619378,
   4.602260,
   4.584849,
   4.567010,
   4.548644,
   4.529795,
   4.510541,
   4.490964,
   4.471142,
   4.451153,
   4.431079,
   4.410998,
   4.390990,
   4.371134,
   4.351486,
   4.332010,
   4.312647,
   4.293337,
   4.274020,
   4.254637,
   4.235130,
   4.215436,
   4.195499,
   4.175258,
   4.154689,
   4.133916,
   4.113097,
   4.092389,
   4.071952,
   4.051945,
   4.032526,
   4.013853,
   3.996086,
   3.979382,
   3.963829,
   3.949233,
   3.935328,
   3.921850,
   3.908531,
   3.895107,
   3.881313,
   3.866883,
   3.851550,
   3.835052,
   3.817201,
   3.798142,
   3.778095,
   3.757285,
   3.735934,
   3.714265,
   3.692501,
   3.670864,
   3.649578,
   3.628866,
   3.608901,
   3.429543,
   3.423938,
   3.417347,
   3.392001,
   3.402406,
   3.478113,
   3.431382,
   3.359269,
   3.321185,
   3.308460,
   3.352962,
   3.355890,
   3.350457,
   3.324009,
   3.311741,
   3.266169,
   3.259870,
   3.229666,
   3.154844,
   3.208520,
   3.231754,
   3.139210,
   3.201274,
   3.200153,
   3.011303,
   2.954048,
   3.096570,
   3.085910,
   3.101150,
   3.101083,
   3.115252,
   3.106951,
   3.083442,
   3.135098,
   3.121872,
   3.065509,
   3.071783,
   3.016466,
   3.007968,
   2.911268,
   3.052044,
   3.187859,
   3.084663,
   3.128487,
   3.197772,
   3.085870,
   3.360993,
   3.308505,
   3.034148,
   3.256056,
   3.415236,
   3.261799,
   3.061951,
   3.286268,
   3.446079,
   3.407203,
   3.356056,
   3.108603,
   3.100788,
   3.316078,
   3.445807,
   3.363542,
   3.234468,
   3.293835,
   3.100412,
   2.801269,
   3.049429,
   3.235647,
   3.264982,
   3.256268,
   3.250956,
   3.188838,
   3.153281,
   3.179305,
   3.176559,
   2.973772,
   2.780901,
   3.075660,
   3.190658,
   3.225214,
   3.156310,
   3.087626,
   3.003518,
   2.973977,
   2.891438,
   2.884478,
   3.067256,
   3.101714,
   3.070925,
   3.027480,
   2.971784,
   2.679076,
   2.473683,
   2.851043,
   2.986284,
   2.974729,
   2.959828,
   2.848335,
   2.884041,
   2.829105,
   2.802388,
   2.869693,
   2.800618,
   2.616787,
   2.746608,
   2.789818,
   2.719918,
   2.713592,
   2.749013,
   2.720338,
   2.712235,
   2.669138,
   2.579947,
   2.553409,
   2.587605,
   2.579479,
   2.567555,
   2.481457,
   2.266193,
   2.405041,
   2.590069,
   2.534445,
   2.488911,
   2.551997,
   2.556989,
   2.536048,
   2.464215,
   2.482469,
   2.557415,
   2.531684,
   2.518767,
   2.510872,
   2.483027,
   2.438762,
   2.446309,
   2.444057,
   2.426139,
   2.428812,
   2.410853,
   2.424555,
   2.437006,
   2.439065,
   2.387807,
   2.350751,
   2.375497,
   2.382778,
   2.343676,
   2.334279,
   2.331599,
   2.325214,
   2.327150,
   2.292152,
   2.280951,
   2.275069,
   2.279409,
   2.268791,
   2.298856,
   2.266306,
   2.254178,
   2.304303,
   2.292745,
   2.229102,
   2.225754,
   2.250612,
   2.207435,
   2.089776,
   1.926230,
   1.990057,
   2.084209,
   2.186278,
   2.203703,
   2.157266,
   2.163799,
   2.189750,
   2.148814,
   2.066877,
   2.066079,
   2.154936,
   2.155372,
   2.129954,
   2.072661,
   2.012531,
   2.004404,
   1.979682,
   1.935472,
   1.956416,
   2.013014,
   2.016873,
   2.021617,
   2.058594,
   2.085881,
   2.016951,
   1.893638,
   1.940715,
   1.985148,
   2.052221,
   2.084150,
   2.084294,
   2.061444,
   2.036040,
   2.008750,
   2.005816,
   2.018928,
   1.996256,
   2.007280,
   2.028233,
   1.986975,
   1.928450,
   1.856194,
   1.872308,
   1.938182,
   1.881973,
   1.894549,
   1.898947,
   1.931248,
   1.904368,
   1.869290,
   1.870223,
   1.838723,
   1.832204,
   1.853039,
   1.868581,
   1.852394,
   1.848506,
   1.797748,
   1.819450,
   1.755905,
   1.765655,
   1.761948,
   1.836479,
   1.833506,
   1.845989,
   1.848025,
   1.816752,
   1.845384,
   1.832237,
   1.804241,
   1.792616,
   1.802330,
   1.785012,
   1.740752,
   1.726955,
   1.773543,
   1.756253,
   1.729349,
   1.705313,
   1.719123,
   1.737093,
   1.738935,
   1.720340,
   1.696008,
   1.690686,
   1.705536,
   1.685225,
   1.673869,
   1.674757,
   1.683672,
   1.680187,
   1.651774,
   1.632723,
   1.642548,
   1.647905,
   1.653353,
   1.641035,
   1.663729,
   1.696638,
   1.728305,
   1.687173,
   1.615114,
   1.489520,
   1.318068,
   1.456017,
   1.603037,
   1.612845,
   1.617812,
   1.616550,
   1.607221,
   1.607261,
   1.586258,
   1.606337,
   1.587490,
   1.566103,
   1.468704,
   1.478720,
   1.529275,
   1.574217,
   1.585923,
   1.584400,
   1.578917,
   1.573929,
   1.547766,
   1.532031,
   1.510492,
   1.514321,
   1.515823,
   1.513543,
   1.528838,
   1.517547,
   1.475870,
   1.469293,
   1.454944,
   1.424716,
   1.460114,
   1.441434,
   1.429422,
   1.428785,
   1.389626,
   1.385463,
   1.422352,
   1.411685,
   1.412527,
   1.422540,
   1.407515,
   1.393436,
   1.402369,
   1.403156,
   1.417846,
   1.410343,
   1.396537,
   1.393135,
   1.367245,
   1.382906,
   1.374254,
   1.352798,
   1.347187,
   1.345430,
   1.347272,
   1.345391,
   1.334316,
   1.319436,
   1.338213,
   1.332534,
   1.313406,
   1.289124,
   1.294199,
   1.305176,
   1.315483,
   1.325588,
   1.317898,
   1.302764,
   1.296579,
   1.282948,
   1.269548,
   1.285730,
   1.273689,
   1.260424,
   1.245394,
   1.248223,
   1.249643,
   1.239370,
   1.235395,
   1.236897,
   1.239061,
   1.234635,
   1.224302,
   1.199720,
   1.194717,
   1.195646,
   1.194233,
   1.191382,
   1.206180,
   1.205258,
   1.183944,
   1.182527,
   1.189936,
   1.180284,
   1.154471,
   1.158355,
   1.156334,
   1.142545,
   1.135848,
   1.141437,
   1.161326,
   1.166728,
   1.162673,
   1.133994,
   1.137442,
   1.121066,
   1.105071,
   1.094066,
   1.097488,
   1.111804,
   1.104474,
   1.106399,
   1.102154,
   1.091601,
   1.085940,
   1.086559,
   1.066421,
   1.068132,
   1.066704,
   1.063345,
   1.060191,
   1.037932,
   1.034625,
   1.045127,
   1.038793,
   1.051696,
   1.066354,
   1.056648,
   1.035767,
   1.037285,
   1.029352,
   1.018348,
   1.014162,
   1.006132,
   0.993013,
   0.997057,
   0.995339,
   1.004414,
   1.003566,
   0.983864,
   0.979161,
   0.978567,
   0.979152,
   0.978670,
   0.985387,
   0.975158,
   0.978956,
   0.980248,
   0.958784,
   0.952305,
   0.959961,
   0.943179,
   0.932737,
   0.933267,
   0.931161,
   0.939256,
   0.945646,
   0.941751,
   0.931917,
   0.915374,
   0.911729,
   0.894162,
   0.895599,
   0.902099,
   0.900083,
   0.883642,
   0.889534,
   0.894531,
   0.896620,
   0.891013,
   0.885600,
   0.879461,
   0.866053,
   0.865648,
   0.854624,
   0.858194,
   0.858308,
   0.869123,
   0.880785,
   0.871810,
   0.854495,
   0.837990,
   0.820663,
   0.834828,
   0.839562,
   0.830678,
   0.848681,
   0.854205,
   0.838658,
   0.829687,
   0.836544,
   0.843412,
   0.836598,
   0.827291,
   0.827161,
   0.844559,
   0.837854,
   0.826937,
   0.826175,
   0.824912,
   0.805219,
   0.758783,
   0.773061,
   0.793307,
   0.750312,
   0.758653,
   0.794086,
   0.813692,
   0.810625,
   0.806745,
   0.796947,
   0.799453,
   0.796635,
   0.786127,
   0.777842,
   0.770307,
   0.766722,
   0.770629,
   0.774589,
   0.773821,
   0.771076,
   0.769639,
   0.766322,
   0.761025,
   0.759265,
   0.759476,
   0.762804,
   0.762400,
   0.757659,
   0.756142,
   0.752275,
   0.758071,
   0.765183,
   0.746240,
   0.742481,
   0.747805,
   0.742472,
   0.734902,
   0.734982,
   0.735173,
   0.732065,
   0.730551,
   0.724031,
   0.725675,
   0.724401,
   0.721371,
   0.714984,
   0.716705,
   0.718296,
   0.713765,
   0.710579,
   0.709461,
   0.707859,
   0.707661,
   0.702670,
   0.700009,
   0.697834,
   0.694133,
   0.693717,
   0.691651,
   0.689123,
   0.686304,
   0.693719,
   0.689902,
   0.683340,
   0.683139,
   0.678157,
   0.679456,
   0.674149,
   0.671279,
   0.673397,
   0.670216,
   0.667604,
   0.670159,
   0.668572,
   0.667490,
   0.665544,
   0.662453,
   0.664247,
   0.659696,
   0.654643,
   0.647086,
   0.629039,
   0.636459,
   0.643817,
   0.635982,
   0.634379,
   0.636551,
   0.636579,
   0.636579,
   0.637643,
   0.635457,
   0.634405,
   0.634183,
   0.632710,
   0.628861,
   0.628092,
   0.627061,
   0.625441,
   0.622494,
   0.623366,
   0.620587,
   0.616979,
   0.614986,
   0.612568,
   0.609916,
   0.607507,
   0.604103,
   0.605850,
   0.605689,
   0.604165,
   0.605185,
   0.601888,
   0.600886,
   0.600392,
   0.595011,
   0.595275,
   0.593941,
   0.593910,
   0.590390,
   0.584587,
   0.581069,
   0.578013,
   0.573659,
   0.574118,
   0.572479,
   0.575800,
   0.576692,
   0.578739,
   0.573916,
   0.574801,
   0.572694,
   0.571006,
   0.567981,
   0.567044,
   0.562140,
   0.552288,
   0.533525,
   0.494757,
   0.433903,
   0.492274,
   0.537006,
   0.540040,
   0.546863,
   0.554403,
   0.556579,
   0.553129,
   0.554275,
   0.554183,
   0.550721,
   0.549579,
   0.547584,
   0.539714,
   0.536867,
   0.534490,
   0.531760,
   0.533476,
   0.530503,
   0.529591,
   0.525970,
   0.525262,
   0.511948,
   0.480373,
   0.503385,
   0.520936,
   0.520518,
   0.517731,
   0.515968,
   0.516474,
   0.513526,
   0.511877,
   0.506977,
   0.510960,
   0.509738,
   0.507655,
   0.505091,
   0.504152,
   0.501915,
   0.500176,
   0.501858,
   0.498210,
   0.497523,
   0.495828,
   0.489314,
   0.492168,
   0.493408,
   0.490831,
   0.491524,
   0.490860,
   0.491187,
   0.489090,
   0.489022,
   0.486573,
   0.485505,
   0.484433,
   0.483313,
   0.482019,
   0.480892,
   0.479831,
   0.478716,
   0.477674,
   0.476629,
   0.475639,
   0.474608,
   0.473598,
   0.472534,
   0.471464,
   0.470390,
   0.469312,
   0.468228,
   0.467196,
   0.466208,
   0.465338,
   0.464461,
   0.463569,
   0.462699,
   0.461825,
   0.460923,
   0.459942,
   0.459010,
   0.458016,
   0.456995,
   0.454349,
   0.452177,
   0.447883,
   0.447594,
   0.446436,
   0.445305,
   0.445424,
   0.444106,
   0.445370,
   0.442250,
   0.441868,
   0.443231,
   0.442298,
   0.440922,
   0.439757,
   0.435862,
   0.433663,
   0.417537,
   0.416872,
   0.434102,
   0.432670,
   0.431716,
   0.430965,
   0.429762,
   0.427439,
   0.427750,
   0.428087,
   0.428063,
   0.426072,
   0.427547,
   0.426637,
   0.426364,
   0.427632,
   0.423686,
   0.423608,
   0.423272,
   0.421447,
   0.416765,
   0.407280,
   0.399756,
   0.397490,
   0.390362,
   0.385687,
   0.391404,
   0.393164,
   0.391460,
   0.403535,
   0.413903,
   0.414301,
   0.414155,
   0.407973,
   0.391160,
   0.392745,
   0.393508,
   0.397403,
   0.392116,
   0.399016,
   0.392446,
   0.392475,
   0.385319,
   0.376640,
   0.382305,
   0.385098,
   0.385878,
   0.388909,
   0.383724,
   0.386502,
   0.384465,
   0.381445,
   0.385999,
   0.386118,
   0.385777,
   0.387003,
   0.384465,
   0.381326,
   0.380795,
   0.378680,
   0.377016,
   0.375385,
   0.376159,
   0.375750,
   0.373378,
   0.373637,
   0.371770,
   0.370643,
   0.371214,
   0.369935,
   0.368991,
   0.365749,
   0.366865,
   0.365909,
   0.364392,
   0.363946,
   0.362768,
   0.362740,
   0.361601,
   0.360804,
   0.361291,
   0.359947,
   0.358907,
   0.356476,
   0.356370,
   0.353272,
   0.352797,
   0.351860,
   0.350406,
   0.350300,
   0.348988,
   0.349573,
   0.348187,
   0.348486,
   0.347285,
   0.345342,
   0.346221,
   0.344018,
   0.343509,
   0.342757,
   0.342030,
   0.341284,
   0.340570,
   0.339836,
   0.339146,
   0.338454,
   0.337775,
   0.337083,
   0.336353,
   0.335663,
   0.334924,
   0.334188,
   0.333447,
   0.332701,
   0.331949,
   0.331188,
   0.330419,
   0.329640,
   0.328851,
   0.328050,
   0.327238,
   0.326430,
   0.325594,
   0.324749,
   0.323854,
   0.322965,
   0.322105,
   0.321248,
   0.320392,
   0.319577,
   0.318874,
   0.318117,
   0.317269,
   0.315940,
   0.315780,
   0.314684,
   0.314947,
   0.313924,
   0.311817,
   0.311450,
   0.310321,
   0.308277,
   0.304839,
   0.305838,
   0.308249,
   0.306514,
   0.306476,
   0.304550,
   0.304096,
   0.303943,
   0.301276,
   0.301311,
   0.300790,
   0.300580,
   0.299702,
   0.299439,
   0.299054,
   0.298412,
   0.297669,
   0.296259,
   0.295243,
   0.294955,
   0.293794,
   0.291888,
   0.291943,
   0.291732,
   0.288623,
   0.287908,
   0.288925,
   0.288305,
   0.287104,
   0.286499,
   0.285305,
   0.285036,
   0.287271,
   0.286229,
   0.284282,
   0.283022,
   0.282330,
   0.281243,
   0.279037,
   0.279708,
   0.279107,
   0.280512,
   0.279423,
   0.278301,
   0.278896,
   0.275634,
   0.274910,
   0.275322,
   0.274199,
   0.272775,
   0.272415,
   0.272986,
   0.273303,
   0.271207,
   0.270707,
   0.271119,
   0.270904,
   0.269168,
   0.270321,
   0.268913,
   0.268902,
   0.268815,
   0.267836,
   0.267351,
   0.267371,
   0.268409,
   0.270433,
   0.267921,
   0.267204,
   0.268907,
   0.266813,
   0.263321,
   0.261349,
   0.261235,
   0.257975,
   0.254218,
   0.252078,
   0.249777,
   0.243460,
   0.249485,
   0.254259,
   0.248955,
   0.253983,
   0.255043,
   0.254438,
   0.252756,
   0.260073,
   0.262452,
   0.259610,
   0.256437,
   0.244951,
   0.228930,
   0.240485,
   0.252543,
   0.252657,
   0.255465,
   0.251843,
   0.248591,
   0.250590,
   0.250925,
   0.243553,
   0.243357,
   0.244198,
   0.242462,
   0.242748,
   0.243756,
   0.241650,
   0.243540,
   0.243505,
   0.239566,
   0.241213,
   0.243304,
   0.242371,
   0.240459,
   0.240593,
   0.241687,
   0.240520,
   0.238768,
   0.237949,
   0.239076,
   0.237837,
   0.238022,
   0.237995,
   0.236684,
   0.236995,
   0.236653,
   0.235232,
   0.233720,
   0.234133,
   0.233446,
   0.234541,
   0.233304,
   0.231299,
   0.230466,
   0.227636,
   0.229417,
   0.230182,
   0.229682,
   0.227862,
   0.228179,
   0.228140,
   0.228759,
   0.228662,
   0.228645,
   0.225315,
   0.223761,
   0.223418,
   0.223538,
   0.225069,
   0.224854,
   0.227416,
   0.224625,
   0.223078,
   0.221376,
   0.217792,
   0.216393,
   0.222002,
   0.223157,
   0.224258,
   0.224537,
   0.223660,
   0.220273,
   0.218448,
   0.217416,
   0.213054,
   0.209286,
   0.214517,
   0.219521,
   0.222301,
   0.223344,
   0.222996,
   0.225396,
   0.225264,
   0.224701,
   0.222742,
   0.219753,
   0.216859,
   0.211755,
   0.205148,
   0.206005,
   0.212493,
   0.217812,
   0.220346,
   0.222734,
   0.223987,
   0.228197,
   0.228341,
   0.225544,
   0.227338,
   0.224578,
   0.223295,
   0.220323,
   0.215593,
   0.212139,
   0.205371,
   0.198848,
   0.197873,
   0.203700,
   0.210344,
   0.212282,
   0.211542,
   0.213657,
   0.215610,
   0.217084,
   0.217035,
   0.216680,
   0.219001,
   0.217295,
   0.217052,
   0.217458,
   0.213271,
   0.213230,
   0.211659,
   0.210112,
   0.205647,
   0.202448,
   0.197171,
   0.187827,
   0.182971,
   0.189374,
   0.196562,
   0.202028,
   0.204466,
   0.207998,
   0.209002,
   0.209274,
   0.211015,
   0.210427,
   0.207225,
   0.208456,
   0.208130,
   0.206430,
   0.205920,
   0.207115,
   0.204268,
   0.202569,
   0.200998,
   0.201865,
   0.196176,
   0.196670,
   0.195900,
   0.195972,
   0.190257,
   0.179079,
   0.181362,
   0.180960,
   0.176846,
   0.172874,
   0.163364,
   0.167500,
   0.177828,
   0.187139,
   0.197175,
   0.201597,
   0.200915,
   0.202681,
   0.199039,
   0.195880,
   0.189086,
   0.185623,
   0.184135,
   0.186090,
   0.181940,
   0.182722,
   0.186450,
   0.184374,
   0.183797,
   0.185888,
   0.190615,
   0.186525,
   0.189141,
   0.183518,
   0.177740,
   0.180128,
   0.186132,
   0.182454,
   0.170416,
   0.176839,
   0.183941,
   0.181722,
   0.172588,
   0.175363,
   0.183403,
   0.183483,
   0.181292,
   0.182648,
   0.181020,
   0.176295,
   0.171541,
   0.168705,
   0.162858,
   0.153467,
   0.157035,
   0.165276,
   0.170825,
   0.175653,
   0.181853,
   0.181513,
   0.183857,
   0.188182,
   0.187358,
   0.182945,
   0.182328,
   0.183644,
   0.181068,
   0.173019,
   0.172538,
   0.168177,
   0.159079,
   0.147617,
   0.152836,
   0.152960,
   0.145561,
   0.140444,
   0.127312,
   0.152478,
   0.147160,
   0.142956,
   0.156787,
   0.148029,
   0.151849,
   0.150359,
   0.159319,
   0.180377,
   0.196253,
   0.189039,
   0.187042,
   0.180644,
   0.181444,
   0.179328,
   0.169570,
   0.149439,
   0.161556,
   0.149896,
   0.142397,
   0.161105,
   0.156365,
   0.144839,
   0.151947,
   0.159707,
   0.165960,
   0.160235,
   0.156929,
   0.177221,
   0.158785,
   0.144702,
   0.158308,
   0.177750,
   0.167414,
   0.142819,
   0.142667,
   0.137266,
   0.142739,
   0.146134,
   0.136617,
   0.134770,
   0.139202,
   0.144522,
   0.151295,
   0.150715,
   0.164160,
   0.161960,
   0.153477,
   0.149531,
   0.148680,
   0.154960,
   0.154661,
   0.152869,
   0.157869,
   0.153127,
   0.142433,
   0.150445,
   0.150871,
   0.147250,
   0.148776,
   0.147139,
   0.151342,
   0.149540,
   0.143495,
   0.147268,
   0.154285,
   0.154445,
   0.152476,
   0.153305,
   0.155385,
   0.153082,
   0.152324,
   0.151723,
   0.148213,
   0.152852,
   0.146620,
   0.148043,
   0.141635,
   0.142555,
   0.142466,
   0.140215,
   0.137122,
   0.143815,
   0.139917,
   0.147955,
   0.145201,
   0.144058,
   0.140712,
   0.144458,
   0.142993,
   0.141010,
   0.140565,
   0.145511,
   0.142385,
   0.140336,
   0.138228,
   0.141814,
   0.142894,
   0.143319,
   0.140365,
   0.138350,
   0.138965,
   0.140361,
   0.138528,
   0.140201,
   0.136342,
   0.141930,
   0.137537,
   0.138165,
   0.137746,
   0.139792,
   0.140896,
   0.140893,
   0.134811,
   0.139077,
   0.138415,
   0.137951,
   0.136152,
   0.138946,
   0.140585,
   0.135287,
   0.129468,
   0.136288,
   0.135180,
   0.131858,
   0.132693,
   0.134565,
   0.131755,
   0.134631,
   0.133197,
   0.134154,
   0.131798,
   0.131282,
   0.130171,
   0.129890,
   0.126662,
   0.123504,
   0.121138,
   0.120386,
   0.119148,
   0.116048,
   0.117697,
   0.118200,
   0.122834,
   0.123136,
   0.122698,
   0.127109,
   0.125395,
   0.126442,
   0.127393,
   0.128152,
   0.125597,
   0.128979,
   0.126784,
   0.124243,
   0.124650,
   0.126530,
   0.126274,
   0.126484,
   0.125440,
   0.124742,
   0.124574,
   0.124450,
   0.124361,
   0.124293,
   0.124237,
   0.124179,
   0.124109,
   0.124016,
   0.123887,
   0.123711,
   0.123481,
   0.123204,
   0.122890,
   0.122552,
   0.122200,
   0.121845,
   0.121498,
   0.121171,
   0.120874,
   0.120619,
   0.120413,
   0.120252,
   0.120127,
   0.120031,
   0.119954,
   0.119890,
   0.119829,
   0.119764,
   0.119686,
   0.119588,
   0.119462,
   0.119311,
   0.119136,
   0.118942,
   0.118731,
   0.118506,
   0.118269,
   0.118025,
   0.117777,
   0.117526,
   0.117276,
   0.117030,
   0.116789,
   0.116557,
   0.116335,
   0.116125,
   0.115931,
   0.115755,
   0.115598,
   0.115464,
   0.115353,
   0.115260,
   0.115179,
   0.115104,
   0.115029,
   0.114948,
   0.114854,
   0.114741,
   0.114602,
   0.114433,
   0.114228,
   0.113989,
   0.113721,
   0.113426,
   0.113110,
   0.112776,
   0.112429,
   0.112071,
   0.111707,
   0.111340,
   0.110975,
   0.110611,
   0.110250,
   0.109889,
   0.109531,
   0.109174,
   0.108819,
   0.108466,
   0.108114,
   0.107764,
   0.107415,
   0.107068,
   0.106723,
   0.106380,
   0.106038,
   0.105698,
   0.105359,
   0.105022,
   0.104687,
   0.104353,
   0.104021,
   0.103690,
   0.103362,
   0.103034
};

#endif
