#ifndef _B3V_H_
#define _B3V_H_

/* spectrum for b3v star           */
/* number of elements = 1895       */

static double _b3v_lambda[] = {
   1150.000000,
   1155.000000,
   1160.000000,
   1165.000000,
   1170.000000,
   1175.000000,
   1180.000000,
   1185.000000,
   1190.000000,
   1195.000000,
   1200.000000,
   1205.000000,
   1210.000000,
   1215.000000,
   1220.000000,
   1225.000000,
   1230.000000,
   1235.000000,
   1240.000000,
   1245.000000,
   1250.000000,
   1255.000000,
   1260.000000,
   1265.000000,
   1270.000000,
   1275.000000,
   1280.000000,
   1285.000000,
   1290.000000,
   1295.000000,
   1300.000000,
   1305.000000,
   1310.000000,
   1315.000000,
   1320.000000,
   1325.000000,
   1330.000000,
   1335.000000,
   1340.000000,
   1345.000000,
   1350.000000,
   1355.000000,
   1360.000000,
   1365.000000,
   1370.000000,
   1375.000000,
   1380.000000,
   1385.000000,
   1390.000000,
   1395.000000,
   1400.000000,
   1405.000000,
   1410.000000,
   1415.000000,
   1420.000000,
   1425.000000,
   1430.000000,
   1435.000000,
   1440.000000,
   1445.000000,
   1450.000000,
   1455.000000,
   1460.000000,
   1465.000000,
   1470.000000,
   1475.000000,
   1480.000000,
   1485.000000,
   1490.000000,
   1495.000000,
   1500.000000,
   1505.000000,
   1510.000000,
   1515.000000,
   1520.000000,
   1525.000000,
   1530.000000,
   1535.000000,
   1540.000000,
   1545.000000,
   1550.000000,
   1555.000000,
   1560.000000,
   1565.000000,
   1570.000000,
   1575.000000,
   1580.000000,
   1585.000000,
   1590.000000,
   1595.000000,
   1600.000000,
   1605.000000,
   1610.000000,
   1615.000000,
   1620.000000,
   1625.000000,
   1630.000000,
   1635.000000,
   1640.000000,
   1645.000000,
   1650.000000,
   1655.000000,
   1660.000000,
   1665.000000,
   1670.000000,
   1675.000000,
   1680.000000,
   1685.000000,
   1690.000000,
   1695.000000,
   1700.000000,
   1705.000000,
   1710.000000,
   1715.000000,
   1720.000000,
   1725.000000,
   1730.000000,
   1735.000000,
   1740.000000,
   1745.000000,
   1750.000000,
   1755.000000,
   1760.000000,
   1765.000000,
   1770.000000,
   1775.000000,
   1780.000000,
   1785.000000,
   1790.000000,
   1795.000000,
   1800.000000,
   1805.000000,
   1810.000000,
   1815.000000,
   1820.000000,
   1825.000000,
   1830.000000,
   1835.000000,
   1840.000000,
   1845.000000,
   1850.000000,
   1855.000000,
   1860.000000,
   1865.000000,
   1870.000000,
   1875.000000,
   1880.000000,
   1885.000000,
   1890.000000,
   1895.000000,
   1900.000000,
   1905.000000,
   1910.000000,
   1915.000000,
   1920.000000,
   1925.000000,
   1930.000000,
   1935.000000,
   1940.000000,
   1945.000000,
   1950.000000,
   1955.000000,
   1960.000000,
   1965.000000,
   1970.000000,
   1975.000000,
   1980.000000,
   1985.000000,
   1990.000000,
   1995.000000,
   2000.000000,
   2005.000000,
   2010.000000,
   2015.000000,
   2020.000000,
   2025.000000,
   2030.000000,
   2035.000000,
   2040.000000,
   2045.000000,
   2050.000000,
   2055.000000,
   2060.000000,
   2065.000000,
   2070.000000,
   2075.000000,
   2080.000000,
   2085.000000,
   2090.000000,
   2095.000000,
   2100.000000,
   2105.000000,
   2110.000000,
   2115.000000,
   2120.000000,
   2125.000000,
   2130.000000,
   2135.000000,
   2140.000000,
   2145.000000,
   2150.000000,
   2155.000000,
   2160.000000,
   2165.000000,
   2170.000000,
   2175.000000,
   2180.000000,
   2185.000000,
   2190.000000,
   2195.000000,
   2200.000000,
   2205.000000,
   2210.000000,
   2215.000000,
   2220.000000,
   2225.000000,
   2230.000000,
   2235.000000,
   2240.000000,
   2245.000000,
   2250.000000,
   2255.000000,
   2260.000000,
   2265.000000,
   2270.000000,
   2275.000000,
   2280.000000,
   2285.000000,
   2290.000000,
   2295.000000,
   2300.000000,
   2305.000000,
   2310.000000,
   2315.000000,
   2320.000000,
   2325.000000,
   2330.000000,
   2335.000000,
   2340.000000,
   2345.000000,
   2350.000000,
   2355.000000,
   2360.000000,
   2365.000000,
   2370.000000,
   2375.000000,
   2380.000000,
   2385.000000,
   2390.000000,
   2395.000000,
   2400.000000,
   2405.000000,
   2410.000000,
   2415.000000,
   2420.000000,
   2425.000000,
   2430.000000,
   2435.000000,
   2440.000000,
   2445.000000,
   2450.000000,
   2455.000000,
   2460.000000,
   2465.000000,
   2470.000000,
   2475.000000,
   2480.000000,
   2485.000000,
   2490.000000,
   2495.000000,
   2500.000000,
   2505.000000,
   2510.000000,
   2515.000000,
   2520.000000,
   2525.000000,
   2530.000000,
   2535.000000,
   2540.000000,
   2545.000000,
   2550.000000,
   2555.000000,
   2560.000000,
   2565.000000,
   2570.000000,
   2575.000000,
   2580.000000,
   2585.000000,
   2590.000000,
   2595.000000,
   2600.000000,
   2605.000000,
   2610.000000,
   2615.000000,
   2620.000000,
   2625.000000,
   2630.000000,
   2635.000000,
   2640.000000,
   2645.000000,
   2650.000000,
   2655.000000,
   2660.000000,
   2665.000000,
   2670.000000,
   2675.000000,
   2680.000000,
   2685.000000,
   2690.000000,
   2695.000000,
   2700.000000,
   2705.000000,
   2710.000000,
   2715.000000,
   2720.000000,
   2725.000000,
   2730.000000,
   2735.000000,
   2740.000000,
   2745.000000,
   2750.000000,
   2755.000000,
   2760.000000,
   2765.000000,
   2770.000000,
   2775.000000,
   2780.000000,
   2785.000000,
   2790.000000,
   2795.000000,
   2800.000000,
   2805.000000,
   2810.000000,
   2815.000000,
   2820.000000,
   2825.000000,
   2830.000000,
   2835.000000,
   2840.000000,
   2845.000000,
   2850.000000,
   2855.000000,
   2860.000000,
   2865.000000,
   2870.000000,
   2875.000000,
   2880.000000,
   2885.000000,
   2890.000000,
   2895.000000,
   2900.000000,
   2905.000000,
   2910.000000,
   2915.000000,
   2920.000000,
   2925.000000,
   2930.000000,
   2935.000000,
   2940.000000,
   2945.000000,
   2950.000000,
   2955.000000,
   2960.000000,
   2965.000000,
   2970.000000,
   2975.000000,
   2980.000000,
   2985.000000,
   2990.000000,
   2995.000000,
   3000.000000,
   3005.000000,
   3010.000000,
   3015.000000,
   3020.000000,
   3025.000000,
   3030.000000,
   3035.000000,
   3040.000000,
   3045.000000,
   3050.000000,
   3055.000000,
   3060.000000,
   3065.000000,
   3070.000000,
   3075.000000,
   3080.000000,
   3085.000000,
   3090.000000,
   3095.000000,
   3100.000000,
   3105.000000,
   3110.000000,
   3115.000000,
   3120.000000,
   3125.000000,
   3130.000000,
   3135.000000,
   3140.000000,
   3145.000000,
   3150.000000,
   3155.000000,
   3160.000000,
   3165.000000,
   3170.000000,
   3175.000000,
   3180.000000,
   3185.000000,
   3190.000000,
   3195.000000,
   3200.000000,
   3205.000000,
   3210.000000,
   3215.000000,
   3220.000000,
   3225.000000,
   3230.000000,
   3235.000000,
   3240.000000,
   3245.000000,
   3250.000000,
   3255.000000,
   3260.000000,
   3265.000000,
   3270.000000,
   3275.000000,
   3280.000000,
   3285.000000,
   3290.000000,
   3295.000000,
   3300.000000,
   3305.000000,
   3310.000000,
   3315.000000,
   3320.000000,
   3325.000000,
   3330.000000,
   3335.000000,
   3340.000000,
   3345.000000,
   3350.000000,
   3355.000000,
   3360.000000,
   3365.000000,
   3370.000000,
   3375.000000,
   3380.000000,
   3385.000000,
   3390.000000,
   3395.000000,
   3400.000000,
   3405.000000,
   3410.000000,
   3415.000000,
   3420.000000,
   3425.000000,
   3430.000000,
   3435.000000,
   3440.000000,
   3445.000000,
   3450.000000,
   3455.000000,
   3460.000000,
   3465.000000,
   3470.000000,
   3475.000000,
   3480.000000,
   3485.000000,
   3490.000000,
   3495.000000,
   3500.000000,
   3505.000000,
   3510.000000,
   3515.000000,
   3520.000000,
   3525.000000,
   3530.000000,
   3535.000000,
   3540.000000,
   3545.000000,
   3550.000000,
   3555.000000,
   3560.000000,
   3565.000000,
   3570.000000,
   3575.000000,
   3580.000000,
   3585.000000,
   3590.000000,
   3595.000000,
   3600.000000,
   3605.000000,
   3610.000000,
   3615.000000,
   3620.000000,
   3625.000000,
   3630.000000,
   3635.000000,
   3640.000000,
   3645.000000,
   3650.000000,
   3655.000000,
   3660.000000,
   3665.000000,
   3670.000000,
   3675.000000,
   3680.000000,
   3685.000000,
   3690.000000,
   3695.000000,
   3700.000000,
   3705.000000,
   3710.000000,
   3715.000000,
   3720.000000,
   3725.000000,
   3730.000000,
   3735.000000,
   3740.000000,
   3745.000000,
   3750.000000,
   3755.000000,
   3760.000000,
   3765.000000,
   3770.000000,
   3775.000000,
   3780.000000,
   3785.000000,
   3790.000000,
   3795.000000,
   3800.000000,
   3805.000000,
   3810.000000,
   3815.000000,
   3820.000000,
   3825.000000,
   3830.000000,
   3835.000000,
   3840.000000,
   3845.000000,
   3850.000000,
   3855.000000,
   3860.000000,
   3865.000000,
   3870.000000,
   3875.000000,
   3880.000000,
   3885.000000,
   3890.000000,
   3895.000000,
   3900.000000,
   3905.000000,
   3910.000000,
   3915.000000,
   3920.000000,
   3925.000000,
   3930.000000,
   3935.000000,
   3940.000000,
   3945.000000,
   3950.000000,
   3955.000000,
   3960.000000,
   3965.000000,
   3970.000000,
   3975.000000,
   3980.000000,
   3985.000000,
   3990.000000,
   3995.000000,
   4000.000000,
   4005.000000,
   4010.000000,
   4015.000000,
   4020.000000,
   4025.000000,
   4030.000000,
   4035.000000,
   4040.000000,
   4045.000000,
   4050.000000,
   4055.000000,
   4060.000000,
   4065.000000,
   4070.000000,
   4075.000000,
   4080.000000,
   4085.000000,
   4090.000000,
   4095.000000,
   4100.000000,
   4105.000000,
   4110.000000,
   4115.000000,
   4120.000000,
   4125.000000,
   4130.000000,
   4135.000000,
   4140.000000,
   4145.000000,
   4150.000000,
   4155.000000,
   4160.000000,
   4165.000000,
   4170.000000,
   4175.000000,
   4180.000000,
   4185.000000,
   4190.000000,
   4195.000000,
   4200.000000,
   4205.000000,
   4210.000000,
   4215.000000,
   4220.000000,
   4225.000000,
   4230.000000,
   4235.000000,
   4240.000000,
   4245.000000,
   4250.000000,
   4255.000000,
   4260.000000,
   4265.000000,
   4270.000000,
   4275.000000,
   4280.000000,
   4285.000000,
   4290.000000,
   4295.000000,
   4300.000000,
   4305.000000,
   4310.000000,
   4315.000000,
   4320.000000,
   4325.000000,
   4330.000000,
   4335.000000,
   4340.000000,
   4345.000000,
   4350.000000,
   4355.000000,
   4360.000000,
   4365.000000,
   4370.000000,
   4375.000000,
   4380.000000,
   4385.000000,
   4390.000000,
   4395.000000,
   4400.000000,
   4405.000000,
   4410.000000,
   4415.000000,
   4420.000000,
   4425.000000,
   4430.000000,
   4435.000000,
   4440.000000,
   4445.000000,
   4450.000000,
   4455.000000,
   4460.000000,
   4465.000000,
   4470.000000,
   4475.000000,
   4480.000000,
   4485.000000,
   4490.000000,
   4495.000000,
   4500.000000,
   4505.000000,
   4510.000000,
   4515.000000,
   4520.000000,
   4525.000000,
   4530.000000,
   4535.000000,
   4540.000000,
   4545.000000,
   4550.000000,
   4555.000000,
   4560.000000,
   4565.000000,
   4570.000000,
   4575.000000,
   4580.000000,
   4585.000000,
   4590.000000,
   4595.000000,
   4600.000000,
   4605.000000,
   4610.000000,
   4615.000000,
   4620.000000,
   4625.000000,
   4630.000000,
   4635.000000,
   4640.000000,
   4645.000000,
   4650.000000,
   4655.000000,
   4660.000000,
   4665.000000,
   4670.000000,
   4675.000000,
   4680.000000,
   4685.000000,
   4690.000000,
   4695.000000,
   4700.000000,
   4705.000000,
   4710.000000,
   4715.000000,
   4720.000000,
   4725.000000,
   4730.000000,
   4735.000000,
   4740.000000,
   4745.000000,
   4750.000000,
   4755.000000,
   4760.000000,
   4765.000000,
   4770.000000,
   4775.000000,
   4780.000000,
   4785.000000,
   4790.000000,
   4795.000000,
   4800.000000,
   4805.000000,
   4810.000000,
   4815.000000,
   4820.000000,
   4825.000000,
   4830.000000,
   4835.000000,
   4840.000000,
   4845.000000,
   4850.000000,
   4855.000000,
   4860.000000,
   4865.000000,
   4870.000000,
   4875.000000,
   4880.000000,
   4885.000000,
   4890.000000,
   4895.000000,
   4900.000000,
   4905.000000,
   4910.000000,
   4915.000000,
   4920.000000,
   4925.000000,
   4930.000000,
   4935.000000,
   4940.000000,
   4945.000000,
   4950.000000,
   4955.000000,
   4960.000000,
   4965.000000,
   4970.000000,
   4975.000000,
   4980.000000,
   4985.000000,
   4990.000000,
   4995.000000,
   5000.000000,
   5005.000000,
   5010.000000,
   5015.000000,
   5020.000000,
   5025.000000,
   5030.000000,
   5035.000000,
   5040.000000,
   5045.000000,
   5050.000000,
   5055.000000,
   5060.000000,
   5065.000000,
   5070.000000,
   5075.000000,
   5080.000000,
   5085.000000,
   5090.000000,
   5095.000000,
   5100.000000,
   5105.000000,
   5110.000000,
   5115.000000,
   5120.000000,
   5125.000000,
   5130.000000,
   5135.000000,
   5140.000000,
   5145.000000,
   5150.000000,
   5155.000000,
   5160.000000,
   5165.000000,
   5170.000000,
   5175.000000,
   5180.000000,
   5185.000000,
   5190.000000,
   5195.000000,
   5200.000000,
   5205.000000,
   5210.000000,
   5215.000000,
   5220.000000,
   5225.000000,
   5230.000000,
   5235.000000,
   5240.000000,
   5245.000000,
   5250.000000,
   5255.000000,
   5260.000000,
   5265.000000,
   5270.000000,
   5275.000000,
   5280.000000,
   5285.000000,
   5290.000000,
   5295.000000,
   5300.000000,
   5305.000000,
   5310.000000,
   5315.000000,
   5320.000000,
   5325.000000,
   5330.000000,
   5335.000000,
   5340.000000,
   5345.000000,
   5350.000000,
   5355.000000,
   5360.000000,
   5365.000000,
   5370.000000,
   5375.000000,
   5380.000000,
   5385.000000,
   5390.000000,
   5395.000000,
   5400.000000,
   5405.000000,
   5410.000000,
   5415.000000,
   5420.000000,
   5425.000000,
   5430.000000,
   5435.000000,
   5440.000000,
   5445.000000,
   5450.000000,
   5455.000000,
   5460.000000,
   5465.000000,
   5470.000000,
   5475.000000,
   5480.000000,
   5485.000000,
   5490.000000,
   5495.000000,
   5500.000000,
   5505.000000,
   5510.000000,
   5515.000000,
   5520.000000,
   5525.000000,
   5530.000000,
   5535.000000,
   5540.000000,
   5545.000000,
   5550.000000,
   5555.000000,
   5560.000000,
   5565.000000,
   5570.000000,
   5575.000000,
   5580.000000,
   5585.000000,
   5590.000000,
   5595.000000,
   5600.000000,
   5605.000000,
   5610.000000,
   5615.000000,
   5620.000000,
   5625.000000,
   5630.000000,
   5635.000000,
   5640.000000,
   5645.000000,
   5650.000000,
   5655.000000,
   5660.000000,
   5665.000000,
   5670.000000,
   5675.000000,
   5680.000000,
   5685.000000,
   5690.000000,
   5695.000000,
   5700.000000,
   5705.000000,
   5710.000000,
   5715.000000,
   5720.000000,
   5725.000000,
   5730.000000,
   5735.000000,
   5740.000000,
   5745.000000,
   5750.000000,
   5755.000000,
   5760.000000,
   5765.000000,
   5770.000000,
   5775.000000,
   5780.000000,
   5785.000000,
   5790.000000,
   5795.000000,
   5800.000000,
   5805.000000,
   5810.000000,
   5815.000000,
   5820.000000,
   5825.000000,
   5830.000000,
   5835.000000,
   5840.000000,
   5845.000000,
   5850.000000,
   5855.000000,
   5860.000000,
   5865.000000,
   5870.000000,
   5875.000000,
   5880.000000,
   5885.000000,
   5890.000000,
   5895.000000,
   5900.000000,
   5905.000000,
   5910.000000,
   5915.000000,
   5920.000000,
   5925.000000,
   5930.000000,
   5935.000000,
   5940.000000,
   5945.000000,
   5950.000000,
   5955.000000,
   5960.000000,
   5965.000000,
   5970.000000,
   5975.000000,
   5980.000000,
   5985.000000,
   5990.000000,
   5995.000000,
   6000.000000,
   6005.000000,
   6010.000000,
   6015.000000,
   6020.000000,
   6025.000000,
   6030.000000,
   6035.000000,
   6040.000000,
   6045.000000,
   6050.000000,
   6055.000000,
   6060.000000,
   6065.000000,
   6070.000000,
   6075.000000,
   6080.000000,
   6085.000000,
   6090.000000,
   6095.000000,
   6100.000000,
   6105.000000,
   6110.000000,
   6115.000000,
   6120.000000,
   6125.000000,
   6130.000000,
   6135.000000,
   6140.000000,
   6145.000000,
   6150.000000,
   6155.000000,
   6160.000000,
   6165.000000,
   6170.000000,
   6175.000000,
   6180.000000,
   6185.000000,
   6190.000000,
   6195.000000,
   6200.000000,
   6205.000000,
   6210.000000,
   6215.000000,
   6220.000000,
   6225.000000,
   6230.000000,
   6235.000000,
   6240.000000,
   6245.000000,
   6250.000000,
   6255.000000,
   6260.000000,
   6265.000000,
   6270.000000,
   6275.000000,
   6280.000000,
   6285.000000,
   6290.000000,
   6295.000000,
   6300.000000,
   6305.000000,
   6310.000000,
   6315.000000,
   6320.000000,
   6325.000000,
   6330.000000,
   6335.000000,
   6340.000000,
   6345.000000,
   6350.000000,
   6355.000000,
   6360.000000,
   6365.000000,
   6370.000000,
   6375.000000,
   6380.000000,
   6385.000000,
   6390.000000,
   6395.000000,
   6400.000000,
   6405.000000,
   6410.000000,
   6415.000000,
   6420.000000,
   6425.000000,
   6430.000000,
   6435.000000,
   6440.000000,
   6445.000000,
   6450.000000,
   6455.000000,
   6460.000000,
   6465.000000,
   6470.000000,
   6475.000000,
   6480.000000,
   6485.000000,
   6490.000000,
   6495.000000,
   6500.000000,
   6505.000000,
   6510.000000,
   6515.000000,
   6520.000000,
   6525.000000,
   6530.000000,
   6535.000000,
   6540.000000,
   6545.000000,
   6550.000000,
   6555.000000,
   6560.000000,
   6565.000000,
   6570.000000,
   6575.000000,
   6580.000000,
   6585.000000,
   6590.000000,
   6595.000000,
   6600.000000,
   6605.000000,
   6610.000000,
   6615.000000,
   6620.000000,
   6625.000000,
   6630.000000,
   6635.000000,
   6640.000000,
   6645.000000,
   6650.000000,
   6655.000000,
   6660.000000,
   6665.000000,
   6670.000000,
   6675.000000,
   6680.000000,
   6685.000000,
   6690.000000,
   6695.000000,
   6700.000000,
   6705.000000,
   6710.000000,
   6715.000000,
   6720.000000,
   6725.000000,
   6730.000000,
   6735.000000,
   6740.000000,
   6745.000000,
   6750.000000,
   6755.000000,
   6760.000000,
   6765.000000,
   6770.000000,
   6775.000000,
   6780.000000,
   6785.000000,
   6790.000000,
   6795.000000,
   6800.000000,
   6805.000000,
   6810.000000,
   6815.000000,
   6820.000000,
   6825.000000,
   6830.000000,
   6835.000000,
   6840.000000,
   6845.000000,
   6850.000000,
   6855.000000,
   6860.000000,
   6865.000000,
   6870.000000,
   6875.000000,
   6880.000000,
   6885.000000,
   6890.000000,
   6895.000000,
   6900.000000,
   6905.000000,
   6910.000000,
   6915.000000,
   6920.000000,
   6925.000000,
   6930.000000,
   6935.000000,
   6940.000000,
   6945.000000,
   6950.000000,
   6955.000000,
   6960.000000,
   6965.000000,
   6970.000000,
   6975.000000,
   6980.000000,
   6985.000000,
   6990.000000,
   6995.000000,
   7000.000000,
   7005.000000,
   7010.000000,
   7015.000000,
   7020.000000,
   7025.000000,
   7030.000000,
   7035.000000,
   7040.000000,
   7045.000000,
   7050.000000,
   7055.000000,
   7060.000000,
   7065.000000,
   7070.000000,
   7075.000000,
   7080.000000,
   7085.000000,
   7090.000000,
   7095.000000,
   7100.000000,
   7105.000000,
   7110.000000,
   7115.000000,
   7120.000000,
   7125.000000,
   7130.000000,
   7135.000000,
   7140.000000,
   7145.000000,
   7150.000000,
   7155.000000,
   7160.000000,
   7165.000000,
   7170.000000,
   7175.000000,
   7180.000000,
   7185.000000,
   7190.000000,
   7195.000000,
   7200.000000,
   7205.000000,
   7210.000000,
   7215.000000,
   7220.000000,
   7225.000000,
   7230.000000,
   7235.000000,
   7240.000000,
   7245.000000,
   7250.000000,
   7255.000000,
   7260.000000,
   7265.000000,
   7270.000000,
   7275.000000,
   7280.000000,
   7285.000000,
   7290.000000,
   7295.000000,
   7300.000000,
   7305.000000,
   7310.000000,
   7315.000000,
   7320.000000,
   7325.000000,
   7330.000000,
   7335.000000,
   7340.000000,
   7345.000000,
   7350.000000,
   7355.000000,
   7360.000000,
   7365.000000,
   7370.000000,
   7375.000000,
   7380.000000,
   7385.000000,
   7390.000000,
   7395.000000,
   7400.000000,
   7405.000000,
   7410.000000,
   7415.000000,
   7420.000000,
   7425.000000,
   7430.000000,
   7435.000000,
   7440.000000,
   7445.000000,
   7450.000000,
   7455.000000,
   7460.000000,
   7465.000000,
   7470.000000,
   7475.000000,
   7480.000000,
   7485.000000,
   7490.000000,
   7495.000000,
   7500.000000,
   7505.000000,
   7510.000000,
   7515.000000,
   7520.000000,
   7525.000000,
   7530.000000,
   7535.000000,
   7540.000000,
   7545.000000,
   7550.000000,
   7555.000000,
   7560.000000,
   7565.000000,
   7570.000000,
   7575.000000,
   7580.000000,
   7585.000000,
   7590.000000,
   7595.000000,
   7600.000000,
   7605.000000,
   7610.000000,
   7615.000000,
   7620.000000,
   7625.000000,
   7630.000000,
   7635.000000,
   7640.000000,
   7645.000000,
   7650.000000,
   7655.000000,
   7660.000000,
   7665.000000,
   7670.000000,
   7675.000000,
   7680.000000,
   7685.000000,
   7690.000000,
   7695.000000,
   7700.000000,
   7705.000000,
   7710.000000,
   7715.000000,
   7720.000000,
   7725.000000,
   7730.000000,
   7735.000000,
   7740.000000,
   7745.000000,
   7750.000000,
   7755.000000,
   7760.000000,
   7765.000000,
   7770.000000,
   7775.000000,
   7780.000000,
   7785.000000,
   7790.000000,
   7795.000000,
   7800.000000,
   7805.000000,
   7810.000000,
   7815.000000,
   7820.000000,
   7825.000000,
   7830.000000,
   7835.000000,
   7840.000000,
   7845.000000,
   7850.000000,
   7855.000000,
   7860.000000,
   7865.000000,
   7870.000000,
   7875.000000,
   7880.000000,
   7885.000000,
   7890.000000,
   7895.000000,
   7900.000000,
   7905.000000,
   7910.000000,
   7915.000000,
   7920.000000,
   7925.000000,
   7930.000000,
   7935.000000,
   7940.000000,
   7945.000000,
   7950.000000,
   7955.000000,
   7960.000000,
   7965.000000,
   7970.000000,
   7975.000000,
   7980.000000,
   7985.000000,
   7990.000000,
   7995.000000,
   8000.000000,
   8005.000000,
   8010.000000,
   8015.000000,
   8020.000000,
   8025.000000,
   8030.000000,
   8035.000000,
   8040.000000,
   8045.000000,
   8050.000000,
   8055.000000,
   8060.000000,
   8065.000000,
   8070.000000,
   8075.000000,
   8080.000000,
   8085.000000,
   8090.000000,
   8095.000000,
   8100.000000,
   8105.000000,
   8110.000000,
   8115.000000,
   8120.000000,
   8125.000000,
   8130.000000,
   8135.000000,
   8140.000000,
   8145.000000,
   8150.000000,
   8155.000000,
   8160.000000,
   8165.000000,
   8170.000000,
   8175.000000,
   8180.000000,
   8185.000000,
   8190.000000,
   8195.000000,
   8200.000000,
   8205.000000,
   8210.000000,
   8215.000000,
   8220.000000,
   8225.000000,
   8230.000000,
   8235.000000,
   8240.000000,
   8245.000000,
   8250.000000,
   8255.000000,
   8260.000000,
   8265.000000,
   8270.000000,
   8275.000000,
   8280.000000,
   8285.000000,
   8290.000000,
   8295.000000,
   8300.000000,
   8305.000000,
   8310.000000,
   8315.000000,
   8320.000000,
   8325.000000,
   8330.000000,
   8335.000000,
   8340.000000,
   8345.000000,
   8350.000000,
   8355.000000,
   8360.000000,
   8365.000000,
   8370.000000,
   8375.000000,
   8380.000000,
   8385.000000,
   8390.000000,
   8395.000000,
   8400.000000,
   8405.000000,
   8410.000000,
   8415.000000,
   8420.000000,
   8425.000000,
   8430.000000,
   8435.000000,
   8440.000000,
   8445.000000,
   8450.000000,
   8455.000000,
   8460.000000,
   8465.000000,
   8470.000000,
   8475.000000,
   8480.000000,
   8485.000000,
   8490.000000,
   8495.000000,
   8500.000000,
   8505.000000,
   8510.000000,
   8515.000000,
   8520.000000,
   8525.000000,
   8530.000000,
   8535.000000,
   8540.000000,
   8545.000000,
   8550.000000,
   8555.000000,
   8560.000000,
   8565.000000,
   8570.000000,
   8575.000000,
   8580.000000,
   8585.000000,
   8590.000000,
   8595.000000,
   8600.000000,
   8605.000000,
   8610.000000,
   8615.000000,
   8620.000000,
   8625.000000,
   8630.000000,
   8635.000000,
   8640.000000,
   8645.000000,
   8650.000000,
   8655.000000,
   8660.000000,
   8665.000000,
   8670.000000,
   8675.000000,
   8680.000000,
   8685.000000,
   8690.000000,
   8695.000000,
   8700.000000,
   8705.000000,
   8710.000000,
   8715.000000,
   8720.000000,
   8725.000000,
   8730.000000,
   8735.000000,
   8740.000000,
   8745.000000,
   8750.000000,
   8755.000000,
   8760.000000,
   8765.000000,
   8770.000000,
   8775.000000,
   8780.000000,
   8785.000000,
   8790.000000,
   8795.000000,
   8800.000000,
   8805.000000,
   8810.000000,
   8815.000000,
   8820.000000,
   8825.000000,
   8830.000000,
   8835.000000,
   8840.000000,
   8845.000000,
   8850.000000,
   8855.000000,
   8860.000000,
   8865.000000,
   8870.000000,
   8875.000000,
   8880.000000,
   8885.000000,
   8890.000000,
   8895.000000,
   8900.000000,
   8905.000000,
   8910.000000,
   8915.000000,
   8920.000000,
   8925.000000,
   8930.000000,
   8935.000000,
   8940.000000,
   8945.000000,
   8950.000000,
   8955.000000,
   8960.000000,
   8965.000000,
   8970.000000,
   8975.000000,
   8980.000000,
   8985.000000,
   8990.000000,
   8995.000000,
   9000.000000,
   9005.000000,
   9010.000000,
   9015.000000,
   9020.000000,
   9025.000000,
   9030.000000,
   9035.000000,
   9040.000000,
   9045.000000,
   9050.000000,
   9055.000000,
   9060.000000,
   9065.000000,
   9070.000000,
   9075.000000,
   9080.000000,
   9085.000000,
   9090.000000,
   9095.000000,
   9100.000000,
   9105.000000,
   9110.000000,
   9115.000000,
   9120.000000,
   9125.000000,
   9130.000000,
   9135.000000,
   9140.000000,
   9145.000000,
   9150.000000,
   9155.000000,
   9160.000000,
   9165.000000,
   9170.000000,
   9175.000000,
   9180.000000,
   9185.000000,
   9190.000000,
   9195.000000,
   9200.000000,
   9205.000000,
   9210.000000,
   9215.000000,
   9220.000000,
   9225.000000,
   9230.000000,
   9235.000000,
   9240.000000,
   9245.000000,
   9250.000000,
   9255.000000,
   9260.000000,
   9265.000000,
   9270.000000,
   9275.000000,
   9280.000000,
   9285.000000,
   9290.000000,
   9295.000000,
   9300.000000,
   9305.000000,
   9310.000000,
   9315.000000,
   9320.000000,
   9325.000000,
   9330.000000,
   9335.000000,
   9340.000000,
   9345.000000,
   9350.000000,
   9355.000000,
   9360.000000,
   9365.000000,
   9370.000000,
   9375.000000,
   9380.000000,
   9385.000000,
   9390.000000,
   9395.000000,
   9400.000000,
   9405.000000,
   9410.000000,
   9415.000000,
   9420.000000,
   9425.000000,
   9430.000000,
   9435.000000,
   9440.000000,
   9445.000000,
   9450.000000,
   9455.000000,
   9460.000000,
   9465.000000,
   9470.000000,
   9475.000000,
   9480.000000,
   9485.000000,
   9490.000000,
   9495.000000,
   9500.000000,
   9505.000000,
   9510.000000,
   9515.000000,
   9520.000000,
   9525.000000,
   9530.000000,
   9535.000000,
   9540.000000,
   9545.000000,
   9550.000000,
   9555.000000,
   9560.000000,
   9565.000000,
   9570.000000,
   9575.000000,
   9580.000000,
   9585.000000,
   9590.000000,
   9595.000000,
   9600.000000,
   9605.000000,
   9610.000000,
   9615.000000,
   9620.000000,
   9625.000000,
   9630.000000,
   9635.000000,
   9640.000000,
   9645.000000,
   9650.000000,
   9655.000000,
   9660.000000,
   9665.000000,
   9670.000000,
   9675.000000,
   9680.000000,
   9685.000000,
   9690.000000,
   9695.000000,
   9700.000000,
   9705.000000,
   9710.000000,
   9715.000000,
   9720.000000,
   9725.000000,
   9730.000000,
   9735.000000,
   9740.000000,
   9745.000000,
   9750.000000,
   9755.000000,
   9760.000000,
   9765.000000,
   9770.000000,
   9775.000000,
   9780.000000,
   9785.000000,
   9790.000000,
   9795.000000,
   9800.000000,
   9805.000000,
   9810.000000,
   9815.000000,
   9820.000000,
   9825.000000,
   9830.000000,
   9835.000000,
   9840.000000,
   9845.000000,
   9850.000000,
   9855.000000,
   9860.000000,
   9865.000000,
   9870.000000,
   9875.000000,
   9880.000000,
   9885.000000,
   9890.000000,
   9895.000000,
   9900.000000,
   9905.000000,
   9910.000000,
   9915.000000,
   9920.000000,
   9925.000000,
   9930.000000,
   9935.000000,
   9940.000000,
   9945.000000,
   9950.000000,
   9955.000000,
   9960.000000,
   9965.000000,
   9970.000000,
   9975.000000,
   9980.000000,
   9985.000000,
   9990.000000,
   9995.000000,
   10000.000000,
   10005.000000,
   10010.000000,
   10015.000000,
   10020.000000,
   10025.000000,
   10030.000000,
   10035.000000,
   10040.000000,
   10045.000000,
   10050.000000,
   10055.000000,
   10060.000000,
   10065.000000,
   10070.000000,
   10075.000000,
   10080.000000,
   10085.000000,
   10090.000000,
   10095.000000,
   10100.000000,
   10105.000000,
   10110.000000,
   10115.000000,
   10120.000000,
   10125.000000,
   10130.000000,
   10135.000000,
   10140.000000,
   10145.000000,
   10150.000000,
   10155.000000,
   10160.000000,
   10165.000000,
   10170.000000,
   10175.000000,
   10180.000000,
   10185.000000,
   10190.000000,
   10195.000000,
   10200.000000,
   10205.000000,
   10210.000000,
   10215.000000,
   10220.000000,
   10225.000000,
   10230.000000,
   10235.000000,
   10240.000000,
   10245.000000,
   10250.000000,
   10255.000000,
   10260.000000,
   10265.000000,
   10270.000000,
   10275.000000,
   10280.000000,
   10285.000000,
   10290.000000,
   10295.000000,
   10300.000000,
   10305.000000,
   10310.000000,
   10315.000000,
   10320.000000,
   10325.000000,
   10330.000000,
   10335.000000,
   10340.000000,
   10345.000000,
   10350.000000,
   10355.000000,
   10360.000000,
   10365.000000,
   10370.000000,
   10375.000000,
   10380.000000,
   10385.000000,
   10390.000000,
   10395.000000,
   10400.000000,
   10405.000000,
   10410.000000,
   10415.000000,
   10420.000000,
   10425.000000,
   10430.000000,
   10435.000000,
   10440.000000,
   10445.000000,
   10450.000000,
   10455.000000,
   10460.000000,
   10465.000000,
   10470.000000,
   10475.000000,
   10480.000000,
   10485.000000,
   10490.000000,
   10495.000000,
   10500.000000,
   10505.000000,
   10510.000000,
   10515.000000,
   10520.000000,
   10525.000000,
   10530.000000,
   10535.000000,
   10540.000000,
   10545.000000,
   10550.000000,
   10555.000000,
   10560.000000,
   10565.000000,
   10570.000000,
   10575.000000,
   10580.000000,
   10585.000000,
   10590.000000,
   10595.000000,
   10600.000000,
   10605.000000,
   10610.000000,
   10615.000000,
   10620.000000
};

static double _b3v_flux[] = {
   73.493500,
   52.056973,
   40.107903,
   38.053719,
   33.118893,
   28.777067,
   31.390661,
   32.248375,
   25.719637,
   21.616589,
   17.721020,
   9.695179,
   5.745954,
   6.163960,
   12.080103,
   19.185986,
   24.457176,
   29.298016,
   31.457657,
   30.663395,
   29.722422,
   29.280947,
   27.750990,
   27.883957,
   29.480719,
   29.160965,
   29.587063,
   29.411196,
   26.972240,
   23.183989,
   21.063238,
   21.724607,
   25.007467,
   28.309021,
   28.007080,
   25.990555,
   23.723190,
   22.362755,
   24.811134,
   25.928602,
   25.584450,
   24.986406,
   24.467216,
   23.690077,
   23.507584,
   23.137611,
   22.569839,
   21.943096,
   20.535585,
   19.633612,
   20.237179,
   20.654678,
   20.547613,
   20.258307,
   20.551321,
   20.671408,
   20.721645,
   20.734180,
   21.135206,
   21.292837,
   21.394447,
   21.278160,
   21.060345,
   20.869003,
   20.616579,
   20.397402,
   20.401340,
   20.299938,
   20.576220,
   19.938946,
   19.091181,
   18.561932,
   18.038551,
   17.589436,
   18.201942,
   17.636599,
   16.813377,
   16.917498,
   17.232340,
   17.186981,
   17.228636,
   17.070843,
   16.721367,
   16.831522,
   16.953222,
   16.842409,
   16.742388,
   16.931471,
   16.809368,
   16.322369,
   15.809428,
   15.670732,
   15.492072,
   15.779003,
   15.684700,
   15.450562,
   15.325065,
   15.218274,
   15.098079,
   15.328860,
   15.062925,
   14.646425,
   14.607845,
   14.805967,
   14.587255,
   14.891651,
   15.011142,
   14.804092,
   14.513647,
   14.393522,
   14.197844,
   13.752257,
   13.426402,
   13.180688,
   12.771022,
   12.995604,
   13.577050,
   13.675479,
   13.426980,
   13.355306,
   13.376396,
   13.453515,
   13.212234,
   13.300427,
   13.207828,
   12.884406,
   13.064225,
   12.397820,
   11.295619,
   12.484447,
   12.926625,
   12.877028,
   12.846282,
   12.639359,
   12.581686,
   12.578995,
   12.401571,
   12.074924,
   11.677075,
   11.367785,
   11.091774,
   10.868664,
   11.034284,
   11.296078,
   11.637557,
   11.564006,
   11.088074,
   10.603195,
   10.312652,
   10.322340,
   10.473283,
   10.322605,
   10.058705,
   9.841105,
   9.711845,
   9.716064,
   9.885206,
   10.026383,
   10.017025,
   10.094479,
   9.861340,
   9.499817,
   9.088276,
   9.094008,
   9.366223,
   9.614190,
   9.833552,
   9.850756,
   9.147198,
   8.769544,
   8.847930,
   8.976512,
   9.030476,
   9.138763,
   9.214747,
   9.341574,
   9.378438,
   9.175292,
   9.093633,
   8.790895,
   8.968829,
   8.820972,
   8.416173,
   8.552556,
   9.001864,
   9.185249,
   9.005774,
   8.898130,
   9.026948,
   8.620667,
   8.415735,
   8.551138,
   8.528068,
   8.664607,
   8.436861,
   8.406786,
   8.474295,
   8.263382,
   8.222071,
   8.278399,
   8.045949,
   8.101456,
   8.275020,
   8.146863,
   7.931754,
   7.675393,
   7.666683,
   7.874801,
   7.836823,
   7.813819,
   7.799505,
   7.615160,
   7.340442,
   7.082657,
   7.119599,
   7.003537,
   6.879211,
   6.816163,
   6.833563,
   6.810544,
   7.106459,
   7.070928,
   6.906289,
   6.894146,
   6.907609,
   6.873181,
   6.867875,
   6.863197,
   6.957437,
   6.849367,
   6.637064,
   6.450411,
   6.866865,
   6.916873,
   6.607712,
   6.393002,
   6.366454,
   6.461786,
   6.335679,
   6.208396,
   6.356216,
   6.417956,
   6.420489,
   6.324545,
   6.391330,
   6.327062,
   6.113898,
   6.062019,
   5.853863,
   5.998220,
   6.047224,
   5.941816,
   5.834746,
   5.886011,
   5.880982,
   5.872650,
   5.971228,
   5.948529,
   5.886805,
   5.897670,
   5.964781,
   6.137732,
   6.140841,
   6.029321,
   5.859599,
   5.731822,
   5.752573,
   5.742595,
   5.716381,
   5.619045,
   5.774584,
   5.722672,
   5.708639,
   5.629040,
   5.658534,
   5.583370,
   5.643823,
   5.663450,
   5.517419,
   5.451471,
   5.465988,
   5.368155,
   5.513126,
   5.538910,
   5.397697,
   5.363949,
   4.895626,
   4.880027,
   5.264149,
   5.412610,
   5.520313,
   5.318967,
   5.336840,
   5.427650,
   5.370316,
   5.444432,
   5.294271,
   5.291219,
   5.299521,
   5.313751,
   5.289651,
   5.247368,
   5.178174,
   5.021075,
   5.000759,
   5.080135,
   5.122729,
   5.100965,
   5.048073,
   4.841952,
   4.720706,
   4.894629,
   4.945157,
   4.805868,
   4.748075,
   4.663761,
   4.702555,
   4.774931,
   4.747327,
   4.618148,
   4.666606,
   4.624969,
   4.621388,
   4.772823,
   4.595603,
   4.611989,
   4.654745,
   4.552776,
   4.509508,
   4.566204,
   4.401586,
   4.363791,
   4.454272,
   4.539470,
   4.545746,
   4.428907,
   4.251487,
   4.213688,
   4.387358,
   4.395038,
   4.443414,
   4.314068,
   4.346256,
   4.384715,
   4.388760,
   4.341649,
   4.344430,
   4.404702,
   4.364393,
   4.428099,
   4.351735,
   4.266114,
   4.303893,
   4.334833,
   4.281896,
   4.231071,
   4.199085,
   4.182442,
   4.176818,
   4.175901,
   4.077354,
   4.192864,
   4.273727,
   4.161897,
   4.129616,
   4.178843,
   4.153203,
   4.077954,
   3.974545,
   3.905742,
   3.956516,
   3.982907,
   3.963912,
   3.880053,
   3.865638,
   3.894362,
   3.823115,
   3.792896,
   3.814362,
   3.810411,
   3.783811,
   3.823944,
   3.661724,
   3.623108,
   3.645772,
   3.616172,
   3.725528,
   3.771389,
   3.756975,
   3.775247,
   3.643733,
   3.628192,
   3.653302,
   3.685449,
   3.743898,
   3.774720,
   3.721758,
   3.691823,
   3.707745,
   3.713259,
   3.851987,
   3.821174,
   3.543354,
   3.459764,
   3.489033,
   3.525613,
   3.528223,
   3.518119,
   3.541450,
   3.617182,
   3.559664,
   3.586546,
   3.570199,
   3.521537,
   3.474725,
   3.460381,
   3.471681,
   3.490854,
   3.493783,
   3.465260,
   3.432070,
   3.421185,
   3.418353,
   3.400449,
   3.350098,
   3.266796,
   3.211754,
   3.234024,
   3.272294,
   3.260417,
   3.223271,
   3.200132,
   3.196829,
   3.208260,
   3.219054,
   3.215755,
   3.202874,
   3.187368,
   3.168046,
   3.145523,
   3.135809,
   3.148282,
   3.150411,
   3.114419,
   3.073470,
   3.063184,
   3.068086,
   3.064630,
   3.048087,
   3.022504,
   3.008220,
   3.018951,
   3.025638,
   3.001834,
   2.974339,
   2.970523,
   2.966797,
   2.939104,
   2.912483,
   2.912286,
   2.916022,
   2.900131,
   2.884606,
   2.889383,
   2.890605,
   2.864868,
   2.834363,
   2.823527,
   2.820174,
   2.806724,
   2.780643,
   2.746334,
   2.736266,
   2.736048,
   2.746903,
   2.759000,
   2.730653,
   2.719580,
   2.713162,
   2.713468,
   2.698697,
   2.687329,
   2.676552,
   2.660841,
   2.632478,
   2.619043,
   2.582984,
   2.565006,
   2.551552,
   2.556665,
   2.563362,
   2.563361,
   2.490030,
   2.503907,
   2.494170,
   2.552752,
   2.547717,
   2.518447,
   2.554760,
   2.549387,
   2.489963,
   2.478839,
   2.477290,
   2.465636,
   2.422749,
   2.464737,
   2.486899,
   2.449574,
   2.412822,
   2.430993,
   2.429179,
   2.408517,
   2.426377,
   2.451469,
   2.409457,
   2.452132,
   2.492712,
   2.359264,
   2.634647,
   2.609802,
   2.293136,
   2.608634,
   2.954125,
   2.762844,
   2.296398,
   2.576893,
   3.170585,
   3.351454,
   3.035541,
   2.443274,
   2.378041,
   3.013901,
   3.443532,
   3.432026,
   3.227279,
   3.188194,
   2.702127,
   2.227773,
   2.635837,
   3.207731,
   3.473169,
   3.544153,
   3.543777,
   3.470426,
   3.370861,
   3.273494,
   2.969469,
   2.360652,
   2.127159,
   2.700310,
   3.203598,
   3.394311,
   3.464101,
   3.453123,
   3.360442,
   3.285361,
   3.238145,
   3.288610,
   3.390767,
   3.350771,
   3.269003,
   3.119823,
   2.825186,
   2.282819,
   1.925824,
   2.358512,
   2.835714,
   3.054482,
   3.143480,
   3.156434,
   3.146700,
   3.034484,
   2.967404,
   3.012992,
   2.922886,
   2.724925,
   2.853624,
   3.015009,
   3.030313,
   3.041512,
   3.021606,
   3.008871,
   3.004046,
   2.952215,
   2.917780,
   2.924573,
   2.888310,
   2.817917,
   2.667233,
   2.262539,
   1.794532,
   1.913638,
   2.364995,
   2.605530,
   2.668295,
   2.715167,
   2.737748,
   2.733899,
   2.644686,
   2.597587,
   2.694438,
   2.738288,
   2.737101,
   2.717587,
   2.686424,
   2.683566,
   2.683127,
   2.648388,
   2.633761,
   2.633898,
   2.621143,
   2.605884,
   2.604672,
   2.594669,
   2.573302,
   2.553482,
   2.550446,
   2.531052,
   2.536340,
   2.535518,
   2.511440,
   2.481486,
   2.458851,
   2.437020,
   2.426771,
   2.439618,
   2.450742,
   2.439488,
   2.422938,
   2.434139,
   2.430593,
   2.409024,
   2.375741,
   2.350765,
   2.319305,
   2.255063,
   2.076256,
   1.770826,
   1.479347,
   1.638990,
   1.967291,
   2.167900,
   2.261876,
   2.271580,
   2.280192,
   2.288730,
   2.251333,
   2.125321,
   2.111439,
   2.217393,
   2.239258,
   2.225871,
   2.210438,
   2.204139,
   2.175623,
   2.147827,
   2.109094,
   2.074316,
   2.099449,
   2.144129,
   2.149401,
   2.147334,
   2.115809,
   2.033346,
   1.897902,
   1.947950,
   2.020987,
   2.059874,
   2.091089,
   2.087947,
   2.074076,
   2.071098,
   2.060829,
   2.049373,
   2.047136,
   2.041970,
   2.030078,
   2.025507,
   2.001442,
   1.976805,
   1.971684,
   1.987447,
   1.993515,
   1.979813,
   1.961082,
   1.955474,
   1.966684,
   1.950413,
   1.931490,
   1.932144,
   1.927761,
   1.906346,
   1.913828,
   1.918373,
   1.905428,
   1.894777,
   1.870108,
   1.858903,
   1.855171,
   1.871877,
   1.870811,
   1.878660,
   1.864412,
   1.858785,
   1.861371,
   1.843665,
   1.833958,
   1.824789,
   1.828571,
   1.813454,
   1.804382,
   1.798553,
   1.760133,
   1.735192,
   1.747421,
   1.735389,
   1.727139,
   1.734609,
   1.732414,
   1.732915,
   1.732578,
   1.728628,
   1.723038,
   1.711231,
   1.702406,
   1.682609,
   1.670071,
   1.678452,
   1.681230,
   1.680904,
   1.669282,
   1.668846,
   1.660379,
   1.639604,
   1.634323,
   1.640452,
   1.636099,
   1.625604,
   1.597924,
   1.536246,
   1.424078,
   1.238995,
   1.066785,
   1.151652,
   1.347618,
   1.458268,
   1.510443,
   1.532185,
   1.538888,
   1.540676,
   1.548709,
   1.569455,
   1.566980,
   1.536737,
   1.466047,
   1.471794,
   1.554449,
   1.569869,
   1.548462,
   1.545867,
   1.543961,
   1.531182,
   1.528717,
   1.515951,
   1.501948,
   1.484763,
   1.489499,
   1.489218,
   1.504398,
   1.488778,
   1.486923,
   1.471899,
   1.444148,
   1.405277,
   1.405767,
   1.419643,
   1.420329,
   1.419791,
   1.437171,
   1.424876,
   1.407022,
   1.395612,
   1.396487,
   1.391101,
   1.392288,
   1.395216,
   1.396058,
   1.390684,
   1.379880,
   1.376962,
   1.374942,
   1.361301,
   1.354001,
   1.356383,
   1.362004,
   1.363700,
   1.349971,
   1.344213,
   1.341309,
   1.331441,
   1.326942,
   1.311358,
   1.313003,
   1.307966,
   1.304504,
   1.306725,
   1.295598,
   1.287195,
   1.291426,
   1.294675,
   1.293521,
   1.292505,
   1.283633,
   1.279056,
   1.269233,
   1.259441,
   1.254744,
   1.252312,
   1.246105,
   1.238572,
   1.228668,
   1.220913,
   1.221686,
   1.208658,
   1.205649,
   1.205527,
   1.205937,
   1.203365,
   1.198255,
   1.200599,
   1.188826,
   1.186511,
   1.194746,
   1.179391,
   1.167138,
   1.168741,
   1.159947,
   1.150422,
   1.145648,
   1.140727,
   1.145635,
   1.146133,
   1.144218,
   1.136760,
   1.132946,
   1.128643,
   1.132565,
   1.120603,
   1.110027,
   1.114362,
   1.109790,
   1.110378,
   1.108641,
   1.099823,
   1.094454,
   1.102483,
   1.093995,
   1.082653,
   1.080178,
   1.074416,
   1.077803,
   1.065251,
   1.067909,
   1.066195,
   1.062812,
   1.059494,
   1.052085,
   1.046761,
   1.032729,
   1.043428,
   1.050150,
   1.032965,
   1.022005,
   1.024724,
   1.018377,
   1.014406,
   1.013080,
   1.002390,
   0.995045,
   1.006383,
   1.008754,
   0.993917,
   0.998041,
   0.999070,
   0.991563,
   0.991893,
   0.983871,
   0.980972,
   0.986314,
   0.987916,
   0.981487,
   0.968937,
   0.964954,
   0.956628,
   0.953680,
   0.955671,
   0.944550,
   0.940623,
   0.947682,
   0.947879,
   0.939779,
   0.933294,
   0.930475,
   0.926482,
   0.917957,
   0.920472,
   0.921666,
   0.911209,
   0.924183,
   0.923685,
   0.905429,
   0.896557,
   0.897343,
   0.895515,
   0.883214,
   0.881655,
   0.883066,
   0.880092,
   0.867077,
   0.867172,
   0.870628,
   0.872672,
   0.865374,
   0.860956,
   0.862235,
   0.853292,
   0.833259,
   0.839872,
   0.850104,
   0.844438,
   0.843417,
   0.852191,
   0.851679,
   0.840175,
   0.840436,
   0.842067,
   0.840272,
   0.837110,
   0.838904,
   0.837348,
   0.833486,
   0.832909,
   0.837790,
   0.835951,
   0.816095,
   0.773741,
   0.793371,
   0.799984,
   0.773859,
   0.769205,
   0.789478,
   0.812453,
   0.818899,
   0.810845,
   0.803162,
   0.794598,
   0.781695,
   0.777045,
   0.783534,
   0.781186,
   0.777545,
   0.775734,
   0.773036,
   0.774540,
   0.765983,
   0.761045,
   0.757397,
   0.760515,
   0.757142,
   0.756342,
   0.760994,
   0.771847,
   0.767233,
   0.770452,
   0.761025,
   0.754031,
   0.749663,
   0.745953,
   0.748280,
   0.735750,
   0.736439,
   0.735525,
   0.736178,
   0.735287,
   0.738203,
   0.732940,
   0.728241,
   0.730172,
   0.728733,
   0.724074,
   0.718250,
   0.715617,
   0.716259,
   0.712857,
   0.716132,
   0.713218,
   0.712779,
   0.708209,
   0.704858,
   0.702954,
   0.702256,
   0.698737,
   0.696460,
   0.694869,
   0.695500,
   0.690182,
   0.686378,
   0.687543,
   0.687613,
   0.688787,
   0.685869,
   0.683968,
   0.680965,
   0.678379,
   0.677085,
   0.671795,
   0.674369,
   0.678849,
   0.675121,
   0.672218,
   0.673642,
   0.667591,
   0.662452,
   0.662623,
   0.655101,
   0.641127,
   0.631305,
   0.636707,
   0.643875,
   0.641291,
   0.643233,
   0.641256,
   0.641738,
   0.639663,
   0.636857,
   0.641107,
   0.639413,
   0.633958,
   0.627401,
   0.619612,
   0.622327,
   0.627038,
   0.622534,
   0.623127,
   0.617887,
   0.618173,
   0.614131,
   0.616066,
   0.617469,
   0.617374,
   0.609454,
   0.613481,
   0.615681,
   0.614688,
   0.610809,
   0.611239,
   0.609393,
   0.607449,
   0.606186,
   0.601350,
   0.599325,
   0.599565,
   0.598271,
   0.593820,
   0.592434,
   0.590417,
   0.586728,
   0.585607,
   0.581265,
   0.581291,
   0.586006,
   0.588291,
   0.585224,
   0.584624,
   0.583727,
   0.579526,
   0.577485,
   0.567788,
   0.564234,
   0.547138,
   0.522812,
   0.490172,
   0.430326,
   0.422269,
   0.480745,
   0.520248,
   0.533004,
   0.545219,
   0.555162,
   0.554704,
   0.559251,
   0.558955,
   0.557072,
   0.552970,
   0.553148,
   0.555259,
   0.552236,
   0.547379,
   0.544695,
   0.546655,
   0.547503,
   0.544349,
   0.541012,
   0.536744,
   0.533990,
   0.509858,
   0.512364,
   0.524611,
   0.529101,
   0.527796,
   0.529976,
   0.528497,
   0.528241,
   0.521915,
   0.515813,
   0.512941,
   0.518072,
   0.516786,
   0.517709,
   0.515287,
   0.514103,
   0.512407,
   0.512412,
   0.513336,
   0.509831,
   0.506538,
   0.505062,
   0.505816,
   0.504718,
   0.502919,
   0.497464,
   0.501485,
   0.500203,
   0.498915,
   0.493959,
   0.494223,
   0.496562,
   0.492182,
   0.493623,
   0.492259,
   0.491267,
   0.489991,
   0.487925,
   0.485021,
   0.485552,
   0.485074,
   0.483894,
   0.481796,
   0.481135,
   0.479758,
   0.479352,
   0.478465,
   0.477271,
   0.476196,
   0.474731,
   0.473541,
   0.473042,
   0.472448,
   0.471344,
   0.470445,
   0.469948,
   0.469027,
   0.467921,
   0.466559,
   0.465648,
   0.467918,
   0.472465,
   0.463655,
   0.461208,
   0.460341,
   0.455312,
   0.453803,
   0.452516,
   0.457215,
   0.455831,
   0.458729,
   0.458900,
   0.450369,
   0.446921,
   0.448439,
   0.449911,
   0.448625,
   0.440474,
   0.438290,
   0.445473,
   0.443204,
   0.440242,
   0.444060,
   0.446347,
   0.437114,
   0.433552,
   0.445598,
   0.433876,
   0.434221,
   0.438107,
   0.443720,
   0.443771,
   0.445586,
   0.444532,
   0.438201,
   0.435000,
   0.437418,
   0.436289,
   0.426406,
   0.422197,
   0.418547,
   0.408243,
   0.403428,
   0.408400,
   0.408262,
   0.405184,
   0.412386,
   0.428664,
   0.432666,
   0.432668,
   0.426470,
   0.420452,
   0.408242,
   0.411563,
   0.413287,
   0.409456,
   0.410904,
   0.420781,
   0.408146,
   0.406263,
   0.398778,
   0.404155,
   0.405719,
   0.398056,
   0.406509,
   0.401019,
   0.397070,
   0.396559,
   0.399072,
   0.403348,
   0.407229,
   0.401945,
   0.388393,
   0.400011,
   0.395586,
   0.396394,
   0.397259,
   0.395057,
   0.390581,
   0.388475,
   0.387922,
   0.386397,
   0.385670,
   0.385315,
   0.386346,
   0.383797,
   0.379608,
   0.374922,
   0.375602,
   0.379501,
   0.382620,
   0.381241,
   0.382529,
   0.381067,
   0.384492,
   0.379338,
   0.376654,
   0.377731,
   0.375770,
   0.374384,
   0.372718,
   0.371187,
   0.370657,
   0.377147,
   0.368320,
   0.366531,
   0.367597,
   0.366207,
   0.365727,
   0.362884,
   0.360904,
   0.362551,
   0.360243,
   0.363402,
   0.360293,
   0.362257,
   0.361165,
   0.360125,
   0.359022,
   0.357881,
   0.356777,
   0.355515,
   0.354225,
   0.353587,
   0.352964,
   0.351137,
   0.349622,
   0.348457,
   0.348262,
   0.348093,
   0.347264,
   0.346389,
   0.345923,
   0.345131,
   0.344272,
   0.343546,
   0.342970,
   0.342512,
   0.341976,
   0.341416,
   0.340661,
   0.339796,
   0.339232,
   0.338912,
   0.338417,
   0.337756,
   0.337153,
   0.336088,
   0.334998,
   0.334677,
   0.334099,
   0.332825,
   0.333519,
   0.331926,
   0.330531,
   0.322426,
   0.325910,
   0.327478,
   0.329231,
   0.318135,
   0.315646,
   0.322182,
   0.326168,
   0.327078,
   0.317788,
   0.315986,
   0.320234,
   0.319190,
   0.319642,
   0.316705,
   0.318036,
   0.318873,
   0.315212,
   0.313137,
   0.312505,
   0.312840,
   0.311005,
   0.311076,
   0.308713,
   0.309013,
   0.315816,
   0.310002,
   0.307973,
   0.304912,
   0.305287,
   0.305530,
   0.301617,
   0.302317,
   0.305267,
   0.305969,
   0.302969,
   0.306104,
   0.306430,
   0.304581,
   0.304598,
   0.299811,
   0.294422,
   0.301323,
   0.301173,
   0.302154,
   0.299642,
   0.298672,
   0.299736,
   0.298736,
   0.299472,
   0.298986,
   0.299383,
   0.294634,
   0.295492,
   0.294320,
   0.294462,
   0.286990,
   0.290492,
   0.296701,
   0.294373,
   0.295187,
   0.295057,
   0.298185,
   0.296480,
   0.292406,
   0.293034,
   0.289584,
   0.292420,
   0.288709,
   0.286013,
   0.285073,
   0.289499,
   0.294851,
   0.288656,
   0.287970,
   0.285189,
   0.283588,
   0.283130,
   0.277654,
   0.278952,
   0.276451,
   0.274542,
   0.273845,
   0.272154,
   0.273223,
   0.274495,
   0.274168,
   0.269319,
   0.276379,
   0.275212,
   0.277587,
   0.279110,
   0.278383,
   0.277908,
   0.272570,
   0.263999,
   0.259412,
   0.266717,
   0.269413,
   0.264813,
   0.270320,
   0.266529,
   0.269761,
   0.271618,
   0.262068,
   0.263244,
   0.260981,
   0.262498,
   0.261924,
   0.261752,
   0.261415,
   0.260080,
   0.261227,
   0.260451,
   0.258509,
   0.261030,
   0.256798,
   0.256304,
   0.263387,
   0.256296,
   0.254252,
   0.254138,
   0.252770,
   0.253723,
   0.248612,
   0.250917,
   0.253412,
   0.252673,
   0.250899,
   0.253120,
   0.251436,
   0.252141,
   0.248915,
   0.246376,
   0.242296,
   0.251916,
   0.248416,
   0.248091,
   0.246568,
   0.242292,
   0.246351,
   0.243698,
   0.241597,
   0.238432,
   0.239992,
   0.238998,
   0.238084,
   0.238993,
   0.239286,
   0.241561,
   0.238264,
   0.236713,
   0.234847,
   0.235215,
   0.238283,
   0.237043,
   0.233542,
   0.233722,
   0.232103,
   0.229031,
   0.230483,
   0.232064,
   0.231998,
   0.233379,
   0.233651,
   0.227294,
   0.234074,
   0.227886,
   0.227188,
   0.224087,
   0.222559,
   0.227208,
   0.230154,
   0.235070,
   0.236227,
   0.239369,
   0.237422,
   0.236475,
   0.233424,
   0.228594,
   0.218159,
   0.213583,
   0.215413,
   0.212849,
   0.214448,
   0.220863,
   0.229091,
   0.234328,
   0.233876,
   0.235826,
   0.238199,
   0.239406,
   0.235466,
   0.233963,
   0.232643,
   0.230157,
   0.231850,
   0.218923,
   0.208724,
   0.204079,
   0.201552,
   0.202802,
   0.208858,
   0.215692,
   0.221574,
   0.222623,
   0.224170,
   0.228201,
   0.230648,
   0.230543,
   0.232341,
   0.233330,
   0.230254,
   0.228548,
   0.225158,
   0.223480,
   0.218246,
   0.214359,
   0.211660,
   0.204615,
   0.200441,
   0.192587,
   0.185902,
   0.187420,
   0.194366,
   0.203492,
   0.206923,
   0.215641,
   0.218344,
   0.219594,
   0.220720,
   0.223903,
   0.224064,
   0.222493,
   0.219018,
   0.221864,
   0.217642,
   0.217083,
   0.214477,
   0.216522,
   0.206848,
   0.207084,
   0.213376,
   0.220024,
   0.205696,
   0.207010,
   0.204112,
   0.193037,
   0.180924,
   0.178147,
   0.177536,
   0.173631,
   0.174200,
   0.173121,
   0.182274,
   0.181900,
   0.204978,
   0.211696,
   0.210951,
   0.209446,
   0.219440,
   0.211626,
   0.208242,
   0.202108,
   0.200375,
   0.198644,
   0.195135,
   0.193780,
   0.195177,
   0.194990,
   0.196636,
   0.197645,
   0.198899,
   0.201653,
   0.206314,
   0.189625,
   0.192266,
   0.190817,
   0.192814,
   0.192545,
   0.185835,
   0.188283,
   0.189326,
   0.194063,
   0.189431,
   0.191170,
   0.190922,
   0.196329,
   0.197935,
   0.185684,
   0.196663,
   0.192927,
   0.180242,
   0.174094,
   0.168751,
   0.162184,
   0.160145,
   0.169150,
   0.175241,
   0.180573,
   0.181754,
   0.187595,
   0.192192,
   0.190870,
   0.189622,
   0.186065,
   0.198085,
   0.192997,
   0.204988,
   0.196395,
   0.181119,
   0.196537,
   0.188839,
   0.160993,
   0.162347,
   0.168994,
   0.175214,
   0.154459,
   0.165107,
   0.174203,
   0.180985,
   0.178214,
   0.157984,
   0.170567,
   0.150031,
   0.162281,
   0.182677,
   0.177188,
   0.191807,
   0.204035,
   0.206532,
   0.191212,
   0.192607,
   0.194238,
   0.171565,
   0.157012,
   0.194853,
   0.174933,
   0.145829,
   0.164712,
   0.176415,
   0.162173,
   0.141305,
   0.171968,
   0.178113,
   0.169985,
   0.168842,
   0.187101,
   0.163003,
   0.163462,
   0.165511,
   0.173421,
   0.141231,
   0.165140,
   0.164984,
   0.156451,
   0.148526,
   0.158358,
   0.156609,
   0.132810,
   0.147094,
   0.152249,
   0.151758,
   0.156744,
   0.167006,
   0.168516,
   0.158505,
   0.173849,
   0.173162,
   0.149169,
   0.169920,
   0.160782,
   0.166145,
   0.149100,
   0.159499,
   0.159671,
   0.157275,
   0.161394,
   0.154380,
   0.166048,
   0.157276,
   0.156564,
   0.158929,
   0.147593,
   0.164602,
   0.171518,
   0.163786,
   0.156661,
   0.160655,
   0.172508,
   0.157111,
   0.157334,
   0.157888,
   0.158499,
   0.158889,
   0.158855,
   0.158477,
   0.157909,
   0.157304,
   0.156790,
   0.156401,
   0.156143,
   0.156027,
   0.156052,
   0.156194,
   0.156419,
   0.156695,
   0.156970,
   0.157131,
   0.157044,
   0.156579,
   0.155666,
   0.154481,
   0.153265,
   0.152257,
   0.151634,
   0.151322,
   0.151186,
   0.151089,
   0.150930,
   0.150738,
   0.150579,
   0.150516,
   0.150578,
   0.150652,
   0.150589,
   0.150241,
   0.149516,
   0.148559,
   0.147574,
   0.146762,
   0.146280,
   0.146104,
   0.146159,
   0.146374,
   0.146670,
   0.146944,
   0.147088,
   0.146992,
   0.146591,
   0.145996,
   0.145361,
   0.144841,
   0.144549,
   0.144436,
   0.144410,
   0.144382,
   0.144276,
   0.144083,
   0.143810,
   0.143464,
   0.142991,
   0.142096,
   0.140425,
   0.137622,
   0.133549,
   0.128930,
   0.124707,
   0.121821,
   0.120979,
   0.121955,
   0.124289,
   0.127521,
   0.131174,
   0.134705,
   0.137556,
   0.139167,
   0.139182,
   0.138057,
   0.136452,
   0.135025,
   0.134278,
   0.134072,
   0.134111,
   0.134099,
   0.133811,
   0.133312,
   0.132739,
   0.132229,
   0.131878,
   0.131608,
   0.131302,
   0.130841,
   0.130171,
   0.129489,
   0.129054,
   0.129129,
   0.129850,
   0.130857,
   0.131665,
   0.131790,
   0.130939,
   0.129582,
   0.128378,
   0.127988,
   0.128849,
   0.130498,
   0.132251,
   0.133423,
   0.133502,
   0.132685,
   0.131340,
   0.129838,
   0.128489,
   0.127367,
   0.126483,
   0.125852,
   0.125466,
   0.125236,
   0.125054,
   0.124808,
   0.124436,
   0.124057,
   0.123834,
   0.123932,
   0.124437,
   0.125111,
   0.125638,
   0.125704,
   0.125098,
   0.124036,
   0.122840,
   0.121834,
   0.121265,
   0.121098,
   0.121221,
   0.121524,
   0.121888,
   0.122152,
   0.122150,
   0.121710,
   0.120751,
   0.119533,
   0.118401,
   0.117702,
   0.117670,
   0.118095,
   0.118656,
   0.119030,
   0.118988,
   0.118670,
   0.118306,
   0.118127,
   0.118287,
   0.118623,
   0.118895,
   0.118864,
   0.118374,
   0.117618,
   0.116871,
   0.116411,
   0.116409,
   0.116616,
   0.116676,
   0.116234,
   0.115079,
   0.113574,
   0.112226,
   0.111543,
   0.111860,
   0.112823,
   0.113907,
   0.114585,
   0.114479,
   0.113801,
   0.112908,
   0.112160,
   0.111831,
   0.111858,
   0.112092,
   0.112388,
   0.112624,
   0.112796,
   0.112924,
   0.113030
};

#endif
