#ifndef _F02IV_H_
#define _F02IV_H_

/* spectrum for f02iv star           */
/* number of elements = 1895       */

static double _f02iv_lambda[] = {
   1150.000000,
   1155.000000,
   1160.000000,
   1165.000000,
   1170.000000,
   1175.000000,
   1180.000000,
   1185.000000,
   1190.000000,
   1195.000000,
   1200.000000,
   1205.000000,
   1210.000000,
   1215.000000,
   1220.000000,
   1225.000000,
   1230.000000,
   1235.000000,
   1240.000000,
   1245.000000,
   1250.000000,
   1255.000000,
   1260.000000,
   1265.000000,
   1270.000000,
   1275.000000,
   1280.000000,
   1285.000000,
   1290.000000,
   1295.000000,
   1300.000000,
   1305.000000,
   1310.000000,
   1315.000000,
   1320.000000,
   1325.000000,
   1330.000000,
   1335.000000,
   1340.000000,
   1345.000000,
   1350.000000,
   1355.000000,
   1360.000000,
   1365.000000,
   1370.000000,
   1375.000000,
   1380.000000,
   1385.000000,
   1390.000000,
   1395.000000,
   1400.000000,
   1405.000000,
   1410.000000,
   1415.000000,
   1420.000000,
   1425.000000,
   1430.000000,
   1435.000000,
   1440.000000,
   1445.000000,
   1450.000000,
   1455.000000,
   1460.000000,
   1465.000000,
   1470.000000,
   1475.000000,
   1480.000000,
   1485.000000,
   1490.000000,
   1495.000000,
   1500.000000,
   1505.000000,
   1510.000000,
   1515.000000,
   1520.000000,
   1525.000000,
   1530.000000,
   1535.000000,
   1540.000000,
   1545.000000,
   1550.000000,
   1555.000000,
   1560.000000,
   1565.000000,
   1570.000000,
   1575.000000,
   1580.000000,
   1585.000000,
   1590.000000,
   1595.000000,
   1600.000000,
   1605.000000,
   1610.000000,
   1615.000000,
   1620.000000,
   1625.000000,
   1630.000000,
   1635.000000,
   1640.000000,
   1645.000000,
   1650.000000,
   1655.000000,
   1660.000000,
   1665.000000,
   1670.000000,
   1675.000000,
   1680.000000,
   1685.000000,
   1690.000000,
   1695.000000,
   1700.000000,
   1705.000000,
   1710.000000,
   1715.000000,
   1720.000000,
   1725.000000,
   1730.000000,
   1735.000000,
   1740.000000,
   1745.000000,
   1750.000000,
   1755.000000,
   1760.000000,
   1765.000000,
   1770.000000,
   1775.000000,
   1780.000000,
   1785.000000,
   1790.000000,
   1795.000000,
   1800.000000,
   1805.000000,
   1810.000000,
   1815.000000,
   1820.000000,
   1825.000000,
   1830.000000,
   1835.000000,
   1840.000000,
   1845.000000,
   1850.000000,
   1855.000000,
   1860.000000,
   1865.000000,
   1870.000000,
   1875.000000,
   1880.000000,
   1885.000000,
   1890.000000,
   1895.000000,
   1900.000000,
   1905.000000,
   1910.000000,
   1915.000000,
   1920.000000,
   1925.000000,
   1930.000000,
   1935.000000,
   1940.000000,
   1945.000000,
   1950.000000,
   1955.000000,
   1960.000000,
   1965.000000,
   1970.000000,
   1975.000000,
   1980.000000,
   1985.000000,
   1990.000000,
   1995.000000,
   2000.000000,
   2005.000000,
   2010.000000,
   2015.000000,
   2020.000000,
   2025.000000,
   2030.000000,
   2035.000000,
   2040.000000,
   2045.000000,
   2050.000000,
   2055.000000,
   2060.000000,
   2065.000000,
   2070.000000,
   2075.000000,
   2080.000000,
   2085.000000,
   2090.000000,
   2095.000000,
   2100.000000,
   2105.000000,
   2110.000000,
   2115.000000,
   2120.000000,
   2125.000000,
   2130.000000,
   2135.000000,
   2140.000000,
   2145.000000,
   2150.000000,
   2155.000000,
   2160.000000,
   2165.000000,
   2170.000000,
   2175.000000,
   2180.000000,
   2185.000000,
   2190.000000,
   2195.000000,
   2200.000000,
   2205.000000,
   2210.000000,
   2215.000000,
   2220.000000,
   2225.000000,
   2230.000000,
   2235.000000,
   2240.000000,
   2245.000000,
   2250.000000,
   2255.000000,
   2260.000000,
   2265.000000,
   2270.000000,
   2275.000000,
   2280.000000,
   2285.000000,
   2290.000000,
   2295.000000,
   2300.000000,
   2305.000000,
   2310.000000,
   2315.000000,
   2320.000000,
   2325.000000,
   2330.000000,
   2335.000000,
   2340.000000,
   2345.000000,
   2350.000000,
   2355.000000,
   2360.000000,
   2365.000000,
   2370.000000,
   2375.000000,
   2380.000000,
   2385.000000,
   2390.000000,
   2395.000000,
   2400.000000,
   2405.000000,
   2410.000000,
   2415.000000,
   2420.000000,
   2425.000000,
   2430.000000,
   2435.000000,
   2440.000000,
   2445.000000,
   2450.000000,
   2455.000000,
   2460.000000,
   2465.000000,
   2470.000000,
   2475.000000,
   2480.000000,
   2485.000000,
   2490.000000,
   2495.000000,
   2500.000000,
   2505.000000,
   2510.000000,
   2515.000000,
   2520.000000,
   2525.000000,
   2530.000000,
   2535.000000,
   2540.000000,
   2545.000000,
   2550.000000,
   2555.000000,
   2560.000000,
   2565.000000,
   2570.000000,
   2575.000000,
   2580.000000,
   2585.000000,
   2590.000000,
   2595.000000,
   2600.000000,
   2605.000000,
   2610.000000,
   2615.000000,
   2620.000000,
   2625.000000,
   2630.000000,
   2635.000000,
   2640.000000,
   2645.000000,
   2650.000000,
   2655.000000,
   2660.000000,
   2665.000000,
   2670.000000,
   2675.000000,
   2680.000000,
   2685.000000,
   2690.000000,
   2695.000000,
   2700.000000,
   2705.000000,
   2710.000000,
   2715.000000,
   2720.000000,
   2725.000000,
   2730.000000,
   2735.000000,
   2740.000000,
   2745.000000,
   2750.000000,
   2755.000000,
   2760.000000,
   2765.000000,
   2770.000000,
   2775.000000,
   2780.000000,
   2785.000000,
   2790.000000,
   2795.000000,
   2800.000000,
   2805.000000,
   2810.000000,
   2815.000000,
   2820.000000,
   2825.000000,
   2830.000000,
   2835.000000,
   2840.000000,
   2845.000000,
   2850.000000,
   2855.000000,
   2860.000000,
   2865.000000,
   2870.000000,
   2875.000000,
   2880.000000,
   2885.000000,
   2890.000000,
   2895.000000,
   2900.000000,
   2905.000000,
   2910.000000,
   2915.000000,
   2920.000000,
   2925.000000,
   2930.000000,
   2935.000000,
   2940.000000,
   2945.000000,
   2950.000000,
   2955.000000,
   2960.000000,
   2965.000000,
   2970.000000,
   2975.000000,
   2980.000000,
   2985.000000,
   2990.000000,
   2995.000000,
   3000.000000,
   3005.000000,
   3010.000000,
   3015.000000,
   3020.000000,
   3025.000000,
   3030.000000,
   3035.000000,
   3040.000000,
   3045.000000,
   3050.000000,
   3055.000000,
   3060.000000,
   3065.000000,
   3070.000000,
   3075.000000,
   3080.000000,
   3085.000000,
   3090.000000,
   3095.000000,
   3100.000000,
   3105.000000,
   3110.000000,
   3115.000000,
   3120.000000,
   3125.000000,
   3130.000000,
   3135.000000,
   3140.000000,
   3145.000000,
   3150.000000,
   3155.000000,
   3160.000000,
   3165.000000,
   3170.000000,
   3175.000000,
   3180.000000,
   3185.000000,
   3190.000000,
   3195.000000,
   3200.000000,
   3205.000000,
   3210.000000,
   3215.000000,
   3220.000000,
   3225.000000,
   3230.000000,
   3235.000000,
   3240.000000,
   3245.000000,
   3250.000000,
   3255.000000,
   3260.000000,
   3265.000000,
   3270.000000,
   3275.000000,
   3280.000000,
   3285.000000,
   3290.000000,
   3295.000000,
   3300.000000,
   3305.000000,
   3310.000000,
   3315.000000,
   3320.000000,
   3325.000000,
   3330.000000,
   3335.000000,
   3340.000000,
   3345.000000,
   3350.000000,
   3355.000000,
   3360.000000,
   3365.000000,
   3370.000000,
   3375.000000,
   3380.000000,
   3385.000000,
   3390.000000,
   3395.000000,
   3400.000000,
   3405.000000,
   3410.000000,
   3415.000000,
   3420.000000,
   3425.000000,
   3430.000000,
   3435.000000,
   3440.000000,
   3445.000000,
   3450.000000,
   3455.000000,
   3460.000000,
   3465.000000,
   3470.000000,
   3475.000000,
   3480.000000,
   3485.000000,
   3490.000000,
   3495.000000,
   3500.000000,
   3505.000000,
   3510.000000,
   3515.000000,
   3520.000000,
   3525.000000,
   3530.000000,
   3535.000000,
   3540.000000,
   3545.000000,
   3550.000000,
   3555.000000,
   3560.000000,
   3565.000000,
   3570.000000,
   3575.000000,
   3580.000000,
   3585.000000,
   3590.000000,
   3595.000000,
   3600.000000,
   3605.000000,
   3610.000000,
   3615.000000,
   3620.000000,
   3625.000000,
   3630.000000,
   3635.000000,
   3640.000000,
   3645.000000,
   3650.000000,
   3655.000000,
   3660.000000,
   3665.000000,
   3670.000000,
   3675.000000,
   3680.000000,
   3685.000000,
   3690.000000,
   3695.000000,
   3700.000000,
   3705.000000,
   3710.000000,
   3715.000000,
   3720.000000,
   3725.000000,
   3730.000000,
   3735.000000,
   3740.000000,
   3745.000000,
   3750.000000,
   3755.000000,
   3760.000000,
   3765.000000,
   3770.000000,
   3775.000000,
   3780.000000,
   3785.000000,
   3790.000000,
   3795.000000,
   3800.000000,
   3805.000000,
   3810.000000,
   3815.000000,
   3820.000000,
   3825.000000,
   3830.000000,
   3835.000000,
   3840.000000,
   3845.000000,
   3850.000000,
   3855.000000,
   3860.000000,
   3865.000000,
   3870.000000,
   3875.000000,
   3880.000000,
   3885.000000,
   3890.000000,
   3895.000000,
   3900.000000,
   3905.000000,
   3910.000000,
   3915.000000,
   3920.000000,
   3925.000000,
   3930.000000,
   3935.000000,
   3940.000000,
   3945.000000,
   3950.000000,
   3955.000000,
   3960.000000,
   3965.000000,
   3970.000000,
   3975.000000,
   3980.000000,
   3985.000000,
   3990.000000,
   3995.000000,
   4000.000000,
   4005.000000,
   4010.000000,
   4015.000000,
   4020.000000,
   4025.000000,
   4030.000000,
   4035.000000,
   4040.000000,
   4045.000000,
   4050.000000,
   4055.000000,
   4060.000000,
   4065.000000,
   4070.000000,
   4075.000000,
   4080.000000,
   4085.000000,
   4090.000000,
   4095.000000,
   4100.000000,
   4105.000000,
   4110.000000,
   4115.000000,
   4120.000000,
   4125.000000,
   4130.000000,
   4135.000000,
   4140.000000,
   4145.000000,
   4150.000000,
   4155.000000,
   4160.000000,
   4165.000000,
   4170.000000,
   4175.000000,
   4180.000000,
   4185.000000,
   4190.000000,
   4195.000000,
   4200.000000,
   4205.000000,
   4210.000000,
   4215.000000,
   4220.000000,
   4225.000000,
   4230.000000,
   4235.000000,
   4240.000000,
   4245.000000,
   4250.000000,
   4255.000000,
   4260.000000,
   4265.000000,
   4270.000000,
   4275.000000,
   4280.000000,
   4285.000000,
   4290.000000,
   4295.000000,
   4300.000000,
   4305.000000,
   4310.000000,
   4315.000000,
   4320.000000,
   4325.000000,
   4330.000000,
   4335.000000,
   4340.000000,
   4345.000000,
   4350.000000,
   4355.000000,
   4360.000000,
   4365.000000,
   4370.000000,
   4375.000000,
   4380.000000,
   4385.000000,
   4390.000000,
   4395.000000,
   4400.000000,
   4405.000000,
   4410.000000,
   4415.000000,
   4420.000000,
   4425.000000,
   4430.000000,
   4435.000000,
   4440.000000,
   4445.000000,
   4450.000000,
   4455.000000,
   4460.000000,
   4465.000000,
   4470.000000,
   4475.000000,
   4480.000000,
   4485.000000,
   4490.000000,
   4495.000000,
   4500.000000,
   4505.000000,
   4510.000000,
   4515.000000,
   4520.000000,
   4525.000000,
   4530.000000,
   4535.000000,
   4540.000000,
   4545.000000,
   4550.000000,
   4555.000000,
   4560.000000,
   4565.000000,
   4570.000000,
   4575.000000,
   4580.000000,
   4585.000000,
   4590.000000,
   4595.000000,
   4600.000000,
   4605.000000,
   4610.000000,
   4615.000000,
   4620.000000,
   4625.000000,
   4630.000000,
   4635.000000,
   4640.000000,
   4645.000000,
   4650.000000,
   4655.000000,
   4660.000000,
   4665.000000,
   4670.000000,
   4675.000000,
   4680.000000,
   4685.000000,
   4690.000000,
   4695.000000,
   4700.000000,
   4705.000000,
   4710.000000,
   4715.000000,
   4720.000000,
   4725.000000,
   4730.000000,
   4735.000000,
   4740.000000,
   4745.000000,
   4750.000000,
   4755.000000,
   4760.000000,
   4765.000000,
   4770.000000,
   4775.000000,
   4780.000000,
   4785.000000,
   4790.000000,
   4795.000000,
   4800.000000,
   4805.000000,
   4810.000000,
   4815.000000,
   4820.000000,
   4825.000000,
   4830.000000,
   4835.000000,
   4840.000000,
   4845.000000,
   4850.000000,
   4855.000000,
   4860.000000,
   4865.000000,
   4870.000000,
   4875.000000,
   4880.000000,
   4885.000000,
   4890.000000,
   4895.000000,
   4900.000000,
   4905.000000,
   4910.000000,
   4915.000000,
   4920.000000,
   4925.000000,
   4930.000000,
   4935.000000,
   4940.000000,
   4945.000000,
   4950.000000,
   4955.000000,
   4960.000000,
   4965.000000,
   4970.000000,
   4975.000000,
   4980.000000,
   4985.000000,
   4990.000000,
   4995.000000,
   5000.000000,
   5005.000000,
   5010.000000,
   5015.000000,
   5020.000000,
   5025.000000,
   5030.000000,
   5035.000000,
   5040.000000,
   5045.000000,
   5050.000000,
   5055.000000,
   5060.000000,
   5065.000000,
   5070.000000,
   5075.000000,
   5080.000000,
   5085.000000,
   5090.000000,
   5095.000000,
   5100.000000,
   5105.000000,
   5110.000000,
   5115.000000,
   5120.000000,
   5125.000000,
   5130.000000,
   5135.000000,
   5140.000000,
   5145.000000,
   5150.000000,
   5155.000000,
   5160.000000,
   5165.000000,
   5170.000000,
   5175.000000,
   5180.000000,
   5185.000000,
   5190.000000,
   5195.000000,
   5200.000000,
   5205.000000,
   5210.000000,
   5215.000000,
   5220.000000,
   5225.000000,
   5230.000000,
   5235.000000,
   5240.000000,
   5245.000000,
   5250.000000,
   5255.000000,
   5260.000000,
   5265.000000,
   5270.000000,
   5275.000000,
   5280.000000,
   5285.000000,
   5290.000000,
   5295.000000,
   5300.000000,
   5305.000000,
   5310.000000,
   5315.000000,
   5320.000000,
   5325.000000,
   5330.000000,
   5335.000000,
   5340.000000,
   5345.000000,
   5350.000000,
   5355.000000,
   5360.000000,
   5365.000000,
   5370.000000,
   5375.000000,
   5380.000000,
   5385.000000,
   5390.000000,
   5395.000000,
   5400.000000,
   5405.000000,
   5410.000000,
   5415.000000,
   5420.000000,
   5425.000000,
   5430.000000,
   5435.000000,
   5440.000000,
   5445.000000,
   5450.000000,
   5455.000000,
   5460.000000,
   5465.000000,
   5470.000000,
   5475.000000,
   5480.000000,
   5485.000000,
   5490.000000,
   5495.000000,
   5500.000000,
   5505.000000,
   5510.000000,
   5515.000000,
   5520.000000,
   5525.000000,
   5530.000000,
   5535.000000,
   5540.000000,
   5545.000000,
   5550.000000,
   5555.000000,
   5560.000000,
   5565.000000,
   5570.000000,
   5575.000000,
   5580.000000,
   5585.000000,
   5590.000000,
   5595.000000,
   5600.000000,
   5605.000000,
   5610.000000,
   5615.000000,
   5620.000000,
   5625.000000,
   5630.000000,
   5635.000000,
   5640.000000,
   5645.000000,
   5650.000000,
   5655.000000,
   5660.000000,
   5665.000000,
   5670.000000,
   5675.000000,
   5680.000000,
   5685.000000,
   5690.000000,
   5695.000000,
   5700.000000,
   5705.000000,
   5710.000000,
   5715.000000,
   5720.000000,
   5725.000000,
   5730.000000,
   5735.000000,
   5740.000000,
   5745.000000,
   5750.000000,
   5755.000000,
   5760.000000,
   5765.000000,
   5770.000000,
   5775.000000,
   5780.000000,
   5785.000000,
   5790.000000,
   5795.000000,
   5800.000000,
   5805.000000,
   5810.000000,
   5815.000000,
   5820.000000,
   5825.000000,
   5830.000000,
   5835.000000,
   5840.000000,
   5845.000000,
   5850.000000,
   5855.000000,
   5860.000000,
   5865.000000,
   5870.000000,
   5875.000000,
   5880.000000,
   5885.000000,
   5890.000000,
   5895.000000,
   5900.000000,
   5905.000000,
   5910.000000,
   5915.000000,
   5920.000000,
   5925.000000,
   5930.000000,
   5935.000000,
   5940.000000,
   5945.000000,
   5950.000000,
   5955.000000,
   5960.000000,
   5965.000000,
   5970.000000,
   5975.000000,
   5980.000000,
   5985.000000,
   5990.000000,
   5995.000000,
   6000.000000,
   6005.000000,
   6010.000000,
   6015.000000,
   6020.000000,
   6025.000000,
   6030.000000,
   6035.000000,
   6040.000000,
   6045.000000,
   6050.000000,
   6055.000000,
   6060.000000,
   6065.000000,
   6070.000000,
   6075.000000,
   6080.000000,
   6085.000000,
   6090.000000,
   6095.000000,
   6100.000000,
   6105.000000,
   6110.000000,
   6115.000000,
   6120.000000,
   6125.000000,
   6130.000000,
   6135.000000,
   6140.000000,
   6145.000000,
   6150.000000,
   6155.000000,
   6160.000000,
   6165.000000,
   6170.000000,
   6175.000000,
   6180.000000,
   6185.000000,
   6190.000000,
   6195.000000,
   6200.000000,
   6205.000000,
   6210.000000,
   6215.000000,
   6220.000000,
   6225.000000,
   6230.000000,
   6235.000000,
   6240.000000,
   6245.000000,
   6250.000000,
   6255.000000,
   6260.000000,
   6265.000000,
   6270.000000,
   6275.000000,
   6280.000000,
   6285.000000,
   6290.000000,
   6295.000000,
   6300.000000,
   6305.000000,
   6310.000000,
   6315.000000,
   6320.000000,
   6325.000000,
   6330.000000,
   6335.000000,
   6340.000000,
   6345.000000,
   6350.000000,
   6355.000000,
   6360.000000,
   6365.000000,
   6370.000000,
   6375.000000,
   6380.000000,
   6385.000000,
   6390.000000,
   6395.000000,
   6400.000000,
   6405.000000,
   6410.000000,
   6415.000000,
   6420.000000,
   6425.000000,
   6430.000000,
   6435.000000,
   6440.000000,
   6445.000000,
   6450.000000,
   6455.000000,
   6460.000000,
   6465.000000,
   6470.000000,
   6475.000000,
   6480.000000,
   6485.000000,
   6490.000000,
   6495.000000,
   6500.000000,
   6505.000000,
   6510.000000,
   6515.000000,
   6520.000000,
   6525.000000,
   6530.000000,
   6535.000000,
   6540.000000,
   6545.000000,
   6550.000000,
   6555.000000,
   6560.000000,
   6565.000000,
   6570.000000,
   6575.000000,
   6580.000000,
   6585.000000,
   6590.000000,
   6595.000000,
   6600.000000,
   6605.000000,
   6610.000000,
   6615.000000,
   6620.000000,
   6625.000000,
   6630.000000,
   6635.000000,
   6640.000000,
   6645.000000,
   6650.000000,
   6655.000000,
   6660.000000,
   6665.000000,
   6670.000000,
   6675.000000,
   6680.000000,
   6685.000000,
   6690.000000,
   6695.000000,
   6700.000000,
   6705.000000,
   6710.000000,
   6715.000000,
   6720.000000,
   6725.000000,
   6730.000000,
   6735.000000,
   6740.000000,
   6745.000000,
   6750.000000,
   6755.000000,
   6760.000000,
   6765.000000,
   6770.000000,
   6775.000000,
   6780.000000,
   6785.000000,
   6790.000000,
   6795.000000,
   6800.000000,
   6805.000000,
   6810.000000,
   6815.000000,
   6820.000000,
   6825.000000,
   6830.000000,
   6835.000000,
   6840.000000,
   6845.000000,
   6850.000000,
   6855.000000,
   6860.000000,
   6865.000000,
   6870.000000,
   6875.000000,
   6880.000000,
   6885.000000,
   6890.000000,
   6895.000000,
   6900.000000,
   6905.000000,
   6910.000000,
   6915.000000,
   6920.000000,
   6925.000000,
   6930.000000,
   6935.000000,
   6940.000000,
   6945.000000,
   6950.000000,
   6955.000000,
   6960.000000,
   6965.000000,
   6970.000000,
   6975.000000,
   6980.000000,
   6985.000000,
   6990.000000,
   6995.000000,
   7000.000000,
   7005.000000,
   7010.000000,
   7015.000000,
   7020.000000,
   7025.000000,
   7030.000000,
   7035.000000,
   7040.000000,
   7045.000000,
   7050.000000,
   7055.000000,
   7060.000000,
   7065.000000,
   7070.000000,
   7075.000000,
   7080.000000,
   7085.000000,
   7090.000000,
   7095.000000,
   7100.000000,
   7105.000000,
   7110.000000,
   7115.000000,
   7120.000000,
   7125.000000,
   7130.000000,
   7135.000000,
   7140.000000,
   7145.000000,
   7150.000000,
   7155.000000,
   7160.000000,
   7165.000000,
   7170.000000,
   7175.000000,
   7180.000000,
   7185.000000,
   7190.000000,
   7195.000000,
   7200.000000,
   7205.000000,
   7210.000000,
   7215.000000,
   7220.000000,
   7225.000000,
   7230.000000,
   7235.000000,
   7240.000000,
   7245.000000,
   7250.000000,
   7255.000000,
   7260.000000,
   7265.000000,
   7270.000000,
   7275.000000,
   7280.000000,
   7285.000000,
   7290.000000,
   7295.000000,
   7300.000000,
   7305.000000,
   7310.000000,
   7315.000000,
   7320.000000,
   7325.000000,
   7330.000000,
   7335.000000,
   7340.000000,
   7345.000000,
   7350.000000,
   7355.000000,
   7360.000000,
   7365.000000,
   7370.000000,
   7375.000000,
   7380.000000,
   7385.000000,
   7390.000000,
   7395.000000,
   7400.000000,
   7405.000000,
   7410.000000,
   7415.000000,
   7420.000000,
   7425.000000,
   7430.000000,
   7435.000000,
   7440.000000,
   7445.000000,
   7450.000000,
   7455.000000,
   7460.000000,
   7465.000000,
   7470.000000,
   7475.000000,
   7480.000000,
   7485.000000,
   7490.000000,
   7495.000000,
   7500.000000,
   7505.000000,
   7510.000000,
   7515.000000,
   7520.000000,
   7525.000000,
   7530.000000,
   7535.000000,
   7540.000000,
   7545.000000,
   7550.000000,
   7555.000000,
   7560.000000,
   7565.000000,
   7570.000000,
   7575.000000,
   7580.000000,
   7585.000000,
   7590.000000,
   7595.000000,
   7600.000000,
   7605.000000,
   7610.000000,
   7615.000000,
   7620.000000,
   7625.000000,
   7630.000000,
   7635.000000,
   7640.000000,
   7645.000000,
   7650.000000,
   7655.000000,
   7660.000000,
   7665.000000,
   7670.000000,
   7675.000000,
   7680.000000,
   7685.000000,
   7690.000000,
   7695.000000,
   7700.000000,
   7705.000000,
   7710.000000,
   7715.000000,
   7720.000000,
   7725.000000,
   7730.000000,
   7735.000000,
   7740.000000,
   7745.000000,
   7750.000000,
   7755.000000,
   7760.000000,
   7765.000000,
   7770.000000,
   7775.000000,
   7780.000000,
   7785.000000,
   7790.000000,
   7795.000000,
   7800.000000,
   7805.000000,
   7810.000000,
   7815.000000,
   7820.000000,
   7825.000000,
   7830.000000,
   7835.000000,
   7840.000000,
   7845.000000,
   7850.000000,
   7855.000000,
   7860.000000,
   7865.000000,
   7870.000000,
   7875.000000,
   7880.000000,
   7885.000000,
   7890.000000,
   7895.000000,
   7900.000000,
   7905.000000,
   7910.000000,
   7915.000000,
   7920.000000,
   7925.000000,
   7930.000000,
   7935.000000,
   7940.000000,
   7945.000000,
   7950.000000,
   7955.000000,
   7960.000000,
   7965.000000,
   7970.000000,
   7975.000000,
   7980.000000,
   7985.000000,
   7990.000000,
   7995.000000,
   8000.000000,
   8005.000000,
   8010.000000,
   8015.000000,
   8020.000000,
   8025.000000,
   8030.000000,
   8035.000000,
   8040.000000,
   8045.000000,
   8050.000000,
   8055.000000,
   8060.000000,
   8065.000000,
   8070.000000,
   8075.000000,
   8080.000000,
   8085.000000,
   8090.000000,
   8095.000000,
   8100.000000,
   8105.000000,
   8110.000000,
   8115.000000,
   8120.000000,
   8125.000000,
   8130.000000,
   8135.000000,
   8140.000000,
   8145.000000,
   8150.000000,
   8155.000000,
   8160.000000,
   8165.000000,
   8170.000000,
   8175.000000,
   8180.000000,
   8185.000000,
   8190.000000,
   8195.000000,
   8200.000000,
   8205.000000,
   8210.000000,
   8215.000000,
   8220.000000,
   8225.000000,
   8230.000000,
   8235.000000,
   8240.000000,
   8245.000000,
   8250.000000,
   8255.000000,
   8260.000000,
   8265.000000,
   8270.000000,
   8275.000000,
   8280.000000,
   8285.000000,
   8290.000000,
   8295.000000,
   8300.000000,
   8305.000000,
   8310.000000,
   8315.000000,
   8320.000000,
   8325.000000,
   8330.000000,
   8335.000000,
   8340.000000,
   8345.000000,
   8350.000000,
   8355.000000,
   8360.000000,
   8365.000000,
   8370.000000,
   8375.000000,
   8380.000000,
   8385.000000,
   8390.000000,
   8395.000000,
   8400.000000,
   8405.000000,
   8410.000000,
   8415.000000,
   8420.000000,
   8425.000000,
   8430.000000,
   8435.000000,
   8440.000000,
   8445.000000,
   8450.000000,
   8455.000000,
   8460.000000,
   8465.000000,
   8470.000000,
   8475.000000,
   8480.000000,
   8485.000000,
   8490.000000,
   8495.000000,
   8500.000000,
   8505.000000,
   8510.000000,
   8515.000000,
   8520.000000,
   8525.000000,
   8530.000000,
   8535.000000,
   8540.000000,
   8545.000000,
   8550.000000,
   8555.000000,
   8560.000000,
   8565.000000,
   8570.000000,
   8575.000000,
   8580.000000,
   8585.000000,
   8590.000000,
   8595.000000,
   8600.000000,
   8605.000000,
   8610.000000,
   8615.000000,
   8620.000000,
   8625.000000,
   8630.000000,
   8635.000000,
   8640.000000,
   8645.000000,
   8650.000000,
   8655.000000,
   8660.000000,
   8665.000000,
   8670.000000,
   8675.000000,
   8680.000000,
   8685.000000,
   8690.000000,
   8695.000000,
   8700.000000,
   8705.000000,
   8710.000000,
   8715.000000,
   8720.000000,
   8725.000000,
   8730.000000,
   8735.000000,
   8740.000000,
   8745.000000,
   8750.000000,
   8755.000000,
   8760.000000,
   8765.000000,
   8770.000000,
   8775.000000,
   8780.000000,
   8785.000000,
   8790.000000,
   8795.000000,
   8800.000000,
   8805.000000,
   8810.000000,
   8815.000000,
   8820.000000,
   8825.000000,
   8830.000000,
   8835.000000,
   8840.000000,
   8845.000000,
   8850.000000,
   8855.000000,
   8860.000000,
   8865.000000,
   8870.000000,
   8875.000000,
   8880.000000,
   8885.000000,
   8890.000000,
   8895.000000,
   8900.000000,
   8905.000000,
   8910.000000,
   8915.000000,
   8920.000000,
   8925.000000,
   8930.000000,
   8935.000000,
   8940.000000,
   8945.000000,
   8950.000000,
   8955.000000,
   8960.000000,
   8965.000000,
   8970.000000,
   8975.000000,
   8980.000000,
   8985.000000,
   8990.000000,
   8995.000000,
   9000.000000,
   9005.000000,
   9010.000000,
   9015.000000,
   9020.000000,
   9025.000000,
   9030.000000,
   9035.000000,
   9040.000000,
   9045.000000,
   9050.000000,
   9055.000000,
   9060.000000,
   9065.000000,
   9070.000000,
   9075.000000,
   9080.000000,
   9085.000000,
   9090.000000,
   9095.000000,
   9100.000000,
   9105.000000,
   9110.000000,
   9115.000000,
   9120.000000,
   9125.000000,
   9130.000000,
   9135.000000,
   9140.000000,
   9145.000000,
   9150.000000,
   9155.000000,
   9160.000000,
   9165.000000,
   9170.000000,
   9175.000000,
   9180.000000,
   9185.000000,
   9190.000000,
   9195.000000,
   9200.000000,
   9205.000000,
   9210.000000,
   9215.000000,
   9220.000000,
   9225.000000,
   9230.000000,
   9235.000000,
   9240.000000,
   9245.000000,
   9250.000000,
   9255.000000,
   9260.000000,
   9265.000000,
   9270.000000,
   9275.000000,
   9280.000000,
   9285.000000,
   9290.000000,
   9295.000000,
   9300.000000,
   9305.000000,
   9310.000000,
   9315.000000,
   9320.000000,
   9325.000000,
   9330.000000,
   9335.000000,
   9340.000000,
   9345.000000,
   9350.000000,
   9355.000000,
   9360.000000,
   9365.000000,
   9370.000000,
   9375.000000,
   9380.000000,
   9385.000000,
   9390.000000,
   9395.000000,
   9400.000000,
   9405.000000,
   9410.000000,
   9415.000000,
   9420.000000,
   9425.000000,
   9430.000000,
   9435.000000,
   9440.000000,
   9445.000000,
   9450.000000,
   9455.000000,
   9460.000000,
   9465.000000,
   9470.000000,
   9475.000000,
   9480.000000,
   9485.000000,
   9490.000000,
   9495.000000,
   9500.000000,
   9505.000000,
   9510.000000,
   9515.000000,
   9520.000000,
   9525.000000,
   9530.000000,
   9535.000000,
   9540.000000,
   9545.000000,
   9550.000000,
   9555.000000,
   9560.000000,
   9565.000000,
   9570.000000,
   9575.000000,
   9580.000000,
   9585.000000,
   9590.000000,
   9595.000000,
   9600.000000,
   9605.000000,
   9610.000000,
   9615.000000,
   9620.000000,
   9625.000000,
   9630.000000,
   9635.000000,
   9640.000000,
   9645.000000,
   9650.000000,
   9655.000000,
   9660.000000,
   9665.000000,
   9670.000000,
   9675.000000,
   9680.000000,
   9685.000000,
   9690.000000,
   9695.000000,
   9700.000000,
   9705.000000,
   9710.000000,
   9715.000000,
   9720.000000,
   9725.000000,
   9730.000000,
   9735.000000,
   9740.000000,
   9745.000000,
   9750.000000,
   9755.000000,
   9760.000000,
   9765.000000,
   9770.000000,
   9775.000000,
   9780.000000,
   9785.000000,
   9790.000000,
   9795.000000,
   9800.000000,
   9805.000000,
   9810.000000,
   9815.000000,
   9820.000000,
   9825.000000,
   9830.000000,
   9835.000000,
   9840.000000,
   9845.000000,
   9850.000000,
   9855.000000,
   9860.000000,
   9865.000000,
   9870.000000,
   9875.000000,
   9880.000000,
   9885.000000,
   9890.000000,
   9895.000000,
   9900.000000,
   9905.000000,
   9910.000000,
   9915.000000,
   9920.000000,
   9925.000000,
   9930.000000,
   9935.000000,
   9940.000000,
   9945.000000,
   9950.000000,
   9955.000000,
   9960.000000,
   9965.000000,
   9970.000000,
   9975.000000,
   9980.000000,
   9985.000000,
   9990.000000,
   9995.000000,
   10000.000000,
   10005.000000,
   10010.000000,
   10015.000000,
   10020.000000,
   10025.000000,
   10030.000000,
   10035.000000,
   10040.000000,
   10045.000000,
   10050.000000,
   10055.000000,
   10060.000000,
   10065.000000,
   10070.000000,
   10075.000000,
   10080.000000,
   10085.000000,
   10090.000000,
   10095.000000,
   10100.000000,
   10105.000000,
   10110.000000,
   10115.000000,
   10120.000000,
   10125.000000,
   10130.000000,
   10135.000000,
   10140.000000,
   10145.000000,
   10150.000000,
   10155.000000,
   10160.000000,
   10165.000000,
   10170.000000,
   10175.000000,
   10180.000000,
   10185.000000,
   10190.000000,
   10195.000000,
   10200.000000,
   10205.000000,
   10210.000000,
   10215.000000,
   10220.000000,
   10225.000000,
   10230.000000,
   10235.000000,
   10240.000000,
   10245.000000,
   10250.000000,
   10255.000000,
   10260.000000,
   10265.000000,
   10270.000000,
   10275.000000,
   10280.000000,
   10285.000000,
   10290.000000,
   10295.000000,
   10300.000000,
   10305.000000,
   10310.000000,
   10315.000000,
   10320.000000,
   10325.000000,
   10330.000000,
   10335.000000,
   10340.000000,
   10345.000000,
   10350.000000,
   10355.000000,
   10360.000000,
   10365.000000,
   10370.000000,
   10375.000000,
   10380.000000,
   10385.000000,
   10390.000000,
   10395.000000,
   10400.000000,
   10405.000000,
   10410.000000,
   10415.000000,
   10420.000000,
   10425.000000,
   10430.000000,
   10435.000000,
   10440.000000,
   10445.000000,
   10450.000000,
   10455.000000,
   10460.000000,
   10465.000000,
   10470.000000,
   10475.000000,
   10480.000000,
   10485.000000,
   10490.000000,
   10495.000000,
   10500.000000,
   10505.000000,
   10510.000000,
   10515.000000,
   10520.000000,
   10525.000000,
   10530.000000,
   10535.000000,
   10540.000000,
   10545.000000,
   10550.000000,
   10555.000000,
   10560.000000,
   10565.000000,
   10570.000000,
   10575.000000,
   10580.000000,
   10585.000000,
   10590.000000,
   10595.000000,
   10600.000000,
   10605.000000,
   10610.000000,
   10615.000000,
   10620.000000
};

static double _f02iv_flux[] = {
   0.031096,
   0.028771,
   0.023100,
   0.007724,
   0.007765,
   0.012171,
   0.002458,
   0.000021,
   0.001387,
   0.002472,
   0.002583,
   0.004398,
   0.009066,
   0.015257,
   0.010152,
   0.002678,
   0.000883,
   0.002486,
   0.003344,
   0.002322,
   0.002433,
   0.001963,
   0.001794,
   0.001730,
   0.000993,
   0.001206,
   0.002753,
   0.001179,
   0.002076,
   0.003024,
   0.002450,
   0.002615,
   0.000992,
   0.001566,
   0.002433,
   0.001357,
   0.000535,
   0.001950,
   0.003358,
   0.001847,
   0.002358,
   0.001672,
   0.001008,
   0.002964,
   0.003357,
   0.003643,
   0.001231,
   0.002246,
   0.003308,
   0.002630,
   0.003822,
   0.002446,
   0.001499,
   0.003155,
   0.003952,
   0.002812,
   0.002605,
   0.002254,
   0.003440,
   0.004767,
   0.002491,
   0.002059,
   0.003513,
   0.006277,
   0.001115,
   0.000501,
   0.008130,
   0.002156,
   0.004778,
   0.008458,
   0.003841,
   0.001957,
   0.003420,
   0.006114,
   0.003962,
   0.001139,
   0.006855,
   0.006453,
   0.001694,
   0.005060,
   0.007856,
   0.004681,
   0.004986,
   0.006985,
   0.004669,
   0.003905,
   0.010616,
   0.006638,
   0.000646,
   0.006199,
   0.007845,
   0.000414,
   0.002153,
   0.009288,
   0.009288,
   0.004239,
   0.003526,
   0.007625,
   0.007296,
   0.004462,
   0.006430,
   0.010808,
   0.008122,
   0.005241,
   0.006120,
   0.007489,
   0.007684,
   0.007725,
   0.009811,
   0.012474,
   0.013737,
   0.018894,
   0.025563,
   0.028889,
   0.028573,
   0.032588,
   0.036540,
   0.034869,
   0.037658,
   0.046543,
   0.053467,
   0.056035,
   0.053461,
   0.055556,
   0.066260,
   0.081664,
   0.088193,
   0.080906,
   0.084405,
   0.096423,
   0.092407,
   0.082739,
   0.088719,
   0.092094,
   0.096793,
   0.099158,
   0.094583,
   0.087977,
   0.075555,
   0.065242,
   0.062377,
   0.073305,
   0.084228,
   0.096596,
   0.104122,
   0.103329,
   0.110359,
   0.115436,
   0.113247,
   0.107158,
   0.102887,
   0.109420,
   0.114537,
   0.122210,
   0.122388,
   0.103746,
   0.079497,
   0.087534,
   0.126969,
   0.150440,
   0.154359,
   0.148171,
   0.130557,
   0.120288,
   0.125874,
   0.153200,
   0.135512,
   0.138206,
   0.126816,
   0.104043,
   0.135484,
   0.129068,
   0.119349,
   0.136556,
   0.139711,
   0.147397,
   0.161361,
   0.174035,
   0.156750,
   0.170267,
   0.178552,
   0.186918,
   0.190130,
   0.180939,
   0.193590,
   0.192993,
   0.242860,
   0.254889,
   0.242000,
   0.214551,
   0.204367,
   0.202543,
   0.228288,
   0.236223,
   0.243092,
   0.246770,
   0.229948,
   0.191790,
   0.189643,
   0.224489,
   0.226696,
   0.241970,
   0.218054,
   0.205600,
   0.208143,
   0.184302,
   0.188536,
   0.219667,
   0.240475,
   0.250513,
   0.252790,
   0.260006,
   0.255639,
   0.235494,
   0.206614,
   0.199020,
   0.194154,
   0.227175,
   0.243507,
   0.215120,
   0.234834,
   0.246088,
   0.225322,
   0.201199,
   0.180519,
   0.169826,
   0.183906,
   0.224859,
   0.228670,
   0.221671,
   0.213329,
   0.214930,
   0.213090,
   0.214249,
   0.204110,
   0.215844,
   0.218151,
   0.187652,
   0.158698,
   0.147215,
   0.140352,
   0.149136,
   0.161431,
   0.154526,
   0.164708,
   0.169920,
   0.158278,
   0.133973,
   0.127165,
   0.131896,
   0.135050,
   0.116920,
   0.104860,
   0.116189,
   0.160623,
   0.204973,
   0.214498,
   0.201537,
   0.214087,
   0.229890,
   0.207421,
   0.207593,
   0.212907,
   0.192233,
   0.177364,
   0.187774,
   0.198805,
   0.181461,
   0.160080,
   0.172283,
   0.211536,
   0.216441,
   0.209334,
   0.185051,
   0.155509,
   0.146849,
   0.146921,
   0.146123,
   0.150112,
   0.145531,
   0.167008,
   0.184656,
   0.199735,
   0.222125,
   0.257652,
   0.241926,
   0.177220,
   0.197653,
   0.240283,
   0.240642,
   0.213411,
   0.208574,
   0.200819,
   0.197446,
   0.227920,
   0.228062,
   0.238928,
   0.326114,
   0.387050,
   0.436719,
   0.451119,
   0.444201,
   0.417652,
   0.370021,
   0.347460,
   0.369705,
   0.396615,
   0.390599,
   0.369733,
   0.372465,
   0.385714,
   0.366656,
   0.347081,
   0.341547,
   0.335747,
   0.347126,
   0.352220,
   0.345686,
   0.297582,
   0.246626,
   0.227866,
   0.253356,
   0.303248,
   0.339951,
   0.372171,
   0.372470,
   0.343513,
   0.287093,
   0.243432,
   0.186593,
   0.148346,
   0.168225,
   0.250991,
   0.369540,
   0.447537,
   0.464595,
   0.487518,
   0.449250,
   0.431149,
   0.443541,
   0.378731,
   0.349640,
   0.396621,
   0.424733,
   0.431566,
   0.464819,
   0.470128,
   0.453603,
   0.449661,
   0.454268,
   0.494247,
   0.561284,
   0.586167,
   0.573661,
   0.550092,
   0.510674,
   0.511889,
   0.521684,
   0.529034,
   0.524747,
   0.507389,
   0.546605,
   0.591876,
   0.590644,
   0.560770,
   0.540809,
   0.551172,
   0.522606,
   0.537988,
   0.584400,
   0.570981,
   0.554597,
   0.570915,
   0.563108,
   0.552427,
   0.548090,
   0.573724,
   0.587857,
   0.574415,
   0.569930,
   0.579313,
   0.572455,
   0.549938,
   0.563500,
   0.575312,
   0.592302,
   0.595513,
   0.600036,
   0.595990,
   0.560775,
   0.555679,
   0.584890,
   0.621316,
   0.621763,
   0.587432,
   0.584670,
   0.596337,
   0.600290,
   0.627097,
   0.643887,
   0.630049,
   0.616215,
   0.684894,
   0.679502,
   0.705532,
   0.696142,
   0.664527,
   0.659858,
   0.683178,
   0.678552,
   0.734761,
   0.744903,
   0.740890,
   0.713012,
   0.682120,
   0.669553,
   0.668047,
   0.666449,
   0.666645,
   0.673430,
   0.690197,
   0.716924,
   0.741336,
   0.750366,
   0.740022,
   0.713433,
   0.693137,
   0.698927,
   0.720191,
   0.739566,
   0.743070,
   0.724339,
   0.704085,
   0.702508,
   0.710680,
   0.715004,
   0.712366,
   0.704159,
   0.699344,
   0.704460,
   0.708773,
   0.701253,
   0.686953,
   0.674365,
   0.669667,
   0.676096,
   0.687437,
   0.696465,
   0.701372,
   0.701862,
   0.698262,
   0.692160,
   0.689552,
   0.695483,
   0.706754,
   0.717905,
   0.722655,
   0.716242,
   0.700794,
   0.681841,
   0.671609,
   0.678346,
   0.687691,
   0.685011,
   0.677213,
   0.673711,
   0.672421,
   0.669762,
   0.667648,
   0.669511,
   0.679359,
   0.697209,
   0.692934,
   0.689596,
   0.687795,
   0.699191,
   0.728478,
   0.751926,
   0.766254,
   0.773638,
   0.764162,
   0.745331,
   0.732795,
   0.696476,
   0.671535,
   0.665811,
   0.653440,
   0.640710,
   0.665950,
   0.697383,
   0.696335,
   0.678802,
   0.672546,
   0.676792,
   0.695448,
   0.721437,
   0.692832,
   0.683654,
   0.699961,
   0.702128,
   0.728102,
   0.776612,
   0.798795,
   0.801028,
   0.797571,
   0.776034,
   0.745942,
   0.751712,
   0.790616,
   0.823257,
   0.829038,
   0.793115,
   0.814829,
   0.867204,
   0.840447,
   0.840527,
   0.820405,
   0.789733,
   0.874391,
   0.854268,
   0.827059,
   0.931479,
   0.955711,
   0.947217,
   0.911057,
   1.025704,
   1.171319,
   1.163720,
   1.074037,
   0.966497,
   1.026369,
   1.216948,
   1.301060,
   1.276963,
   1.235947,
   1.106056,
   0.928454,
   0.827172,
   0.965002,
   1.176346,
   1.302586,
   1.328461,
   1.345869,
   1.381840,
   1.345012,
   1.262512,
   1.161382,
   0.978573,
   0.922046,
   1.059928,
   1.171361,
   1.242988,
   1.298399,
   1.274651,
   1.206702,
   1.037388,
   0.737989,
   0.687567,
   0.951084,
   1.135427,
   1.197294,
   1.157782,
   1.002246,
   0.749794,
   0.693749,
   0.950993,
   1.177450,
   1.290280,
   1.349493,
   1.364727,
   1.367972,
   1.387415,
   1.426084,
   1.457232,
   1.476135,
   1.457294,
   1.430483,
   1.454958,
   1.474621,
   1.448421,
   1.450456,
   1.420469,
   1.407710,
   1.402689,
   1.397083,
   1.355711,
   1.348820,
   1.369601,
   1.327767,
   1.182158,
   1.017304,
   1.083886,
   1.253430,
   1.347850,
   1.371133,
   1.375071,
   1.384107,
   1.436635,
   1.465561,
   1.459012,
   1.439859,
   1.416639,
   1.451244,
   1.464872,
   1.399434,
   1.341783,
   1.359805,
   1.387965,
   1.413146,
   1.397892,
   1.374274,
   1.404299,
   1.443586,
   1.436194,
   1.407003,
   1.354627,
   1.375961,
   1.390578,
   1.403982,
   1.403171,
   1.397729,
   1.400810,
   1.388288,
   1.390172,
   1.358986,
   1.368527,
   1.373537,
   1.327320,
   1.287511,
   1.266240,
   1.214551,
   1.225162,
   1.264403,
   1.297821,
   1.302341,
   1.264151,
   1.224510,
   1.090071,
   0.949907,
   1.059097,
   1.205605,
   1.304385,
   1.387199,
   1.420911,
   1.403836,
   1.403197,
   1.389315,
   1.342417,
   1.364206,
   1.361322,
   1.356342,
   1.370086,
   1.390205,
   1.390904,
   1.410196,
   1.409797,
   1.385313,
   1.372383,
   1.376588,
   1.360611,
   1.362534,
   1.332861,
   1.327472,
   1.339596,
   1.356648,
   1.384669,
   1.358183,
   1.356865,
   1.356163,
   1.371395,
   1.394885,
   1.415360,
   1.410147,
   1.379959,
   1.341941,
   1.302928,
   1.280398,
   1.314142,
   1.347480,
   1.317835,
   1.278960,
   1.299684,
   1.342892,
   1.362215,
   1.378430,
   1.373434,
   1.323733,
   1.305616,
   1.310963,
   1.322170,
   1.327489,
   1.345409,
   1.355471,
   1.342320,
   1.343880,
   1.336430,
   1.322288,
   1.320870,
   1.328338,
   1.311453,
   1.315175,
   1.319144,
   1.321191,
   1.282648,
   1.284777,
   1.321044,
   1.322411,
   1.330041,
   1.323105,
   1.307808,
   1.277718,
   1.261311,
   1.283620,
   1.310557,
   1.321362,
   1.301575,
   1.271914,
   1.272358,
   1.288761,
   1.302256,
   1.295176,
   1.271728,
   1.249986,
   1.241737,
   1.268881,
   1.291543,
   1.284940,
   1.261634,
   1.262914,
   1.270219,
   1.258956,
   1.248195,
   1.258810,
   1.268129,
   1.244519,
   1.222624,
   1.225285,
   1.215704,
   1.196081,
   1.166728,
   1.093914,
   0.947490,
   0.819078,
   0.904067,
   1.029537,
   1.089870,
   1.130903,
   1.133832,
   1.153989,
   1.197563,
   1.207763,
   1.206512,
   1.195073,
   1.185736,
   1.152350,
   1.174229,
   1.201333,
   1.179956,
   1.194969,
   1.230113,
   1.232070,
   1.207392,
   1.209016,
   1.215869,
   1.205368,
   1.198654,
   1.152615,
   1.146433,
   1.179795,
   1.183189,
   1.164534,
   1.137128,
   1.123896,
   1.102731,
   1.115299,
   1.144514,
   1.158102,
   1.146191,
   1.124774,
   1.147769,
   1.156208,
   1.172914,
   1.184978,
   1.168394,
   1.153028,
   1.132789,
   1.128015,
   1.153485,
   1.169318,
   1.151924,
   1.139966,
   1.150666,
   1.157302,
   1.166675,
   1.151594,
   1.122034,
   1.120333,
   1.114777,
   1.108087,
   1.116700,
   1.121716,
   1.119709,
   1.106230,
   1.046196,
   1.025611,
   1.084179,
   1.089680,
   1.057472,
   1.057736,
   1.063373,
   1.076490,
   1.069300,
   1.083555,
   1.096708,
   1.093377,
   1.058102,
   1.054581,
   1.074764,
   1.094375,
   1.097033,
   1.090521,
   1.086596,
   1.052297,
   1.000101,
   1.004456,
   1.030206,
   1.055451,
   1.079181,
   1.096235,
   1.081964,
   1.072780,
   1.082077,
   1.084485,
   1.067404,
   1.054655,
   1.029307,
   1.031704,
   1.043312,
   1.042692,
   1.052337,
   1.065660,
   1.082194,
   1.069124,
   1.040879,
   1.034877,
   1.054352,
   1.056245,
   1.057910,
   1.045400,
   1.028587,
   1.018497,
   1.013636,
   1.022280,
   1.035794,
   1.038038,
   1.033334,
   1.029070,
   1.035410,
   1.050822,
   1.041940,
   1.042485,
   1.036257,
   1.032364,
   1.028982,
   1.028102,
   1.005426,
   1.007241,
   1.026255,
   1.026832,
   1.024405,
   1.021826,
   1.013138,
   1.010518,
   1.025662,
   1.024693,
   0.999765,
   0.995316,
   1.007734,
   1.016699,
   1.017991,
   1.022361,
   1.015705,
   1.006824,
   0.999345,
   0.992744,
   0.997733,
   1.001804,
   0.980272,
   0.966076,
   0.966267,
   0.965231,
   0.984529,
   0.996692,
   0.976556,
   0.977275,
   0.980284,
   0.981844,
   0.980079,
   0.971975,
   0.977381,
   0.977609,
   0.954942,
   0.943237,
   0.950502,
   0.964565,
   0.973814,
   0.960866,
   0.945689,
   0.951919,
   0.958933,
   0.953427,
   0.940334,
   0.934362,
   0.946063,
   0.957317,
   0.962553,
   0.961582,
   0.958690,
   0.954275,
   0.947158,
   0.944247,
   0.939239,
   0.936205,
   0.938922,
   0.944698,
   0.942510,
   0.932580,
   0.926412,
   0.930819,
   0.934037,
   0.937542,
   0.934784,
   0.935509,
   0.937078,
   0.943737,
   0.950099,
   0.945967,
   0.943965,
   0.946062,
   0.941980,
   0.925569,
   0.910787,
   0.916761,
   0.928899,
   0.933648,
   0.928209,
   0.920091,
   0.892635,
   0.852247,
   0.855659,
   0.891813,
   0.910609,
   0.904957,
   0.900949,
   0.901136,
   0.900882,
   0.897049,
   0.898720,
   0.892714,
   0.885611,
   0.882517,
   0.885350,
   0.891238,
   0.891122,
   0.886777,
   0.880525,
   0.876309,
   0.869697,
   0.872438,
   0.876718,
   0.874806,
   0.865121,
   0.865458,
   0.860784,
   0.855607,
   0.859909,
   0.862178,
   0.867170,
   0.857342,
   0.867317,
   0.867535,
   0.862529,
   0.863538,
   0.860605,
   0.862989,
   0.855573,
   0.852672,
   0.848334,
   0.848169,
   0.849198,
   0.844251,
   0.841836,
   0.851926,
   0.853350,
   0.843001,
   0.837963,
   0.840810,
   0.824486,
   0.815481,
   0.825241,
   0.828028,
   0.822967,
   0.813641,
   0.814690,
   0.818037,
   0.827593,
   0.833115,
   0.834108,
   0.829728,
   0.828737,
   0.832269,
   0.839047,
   0.830718,
   0.819549,
   0.819758,
   0.823663,
   0.814082,
   0.806446,
   0.802667,
   0.796863,
   0.796110,
   0.804732,
   0.807729,
   0.806862,
   0.806433,
   0.791640,
   0.770904,
   0.792888,
   0.796802,
   0.789345,
   0.780667,
   0.785723,
   0.793475,
   0.784752,
   0.785985,
   0.795711,
   0.794626,
   0.784481,
   0.785344,
   0.781241,
   0.781911,
   0.788252,
   0.779917,
   0.777846,
   0.776998,
   0.782656,
   0.782987,
   0.781270,
   0.777336,
   0.774111,
   0.770789,
   0.770219,
   0.766230,
   0.763448,
   0.764606,
   0.774237,
   0.767203,
   0.764256,
   0.764003,
   0.767200,
   0.758487,
   0.747724,
   0.747575,
   0.753733,
   0.755296,
   0.752054,
   0.749927,
   0.746806,
   0.735028,
   0.718726,
   0.740198,
   0.758060,
   0.758772,
   0.748374,
   0.748667,
   0.751781,
   0.745176,
   0.739177,
   0.727483,
   0.708543,
   0.680581,
   0.629131,
   0.530632,
   0.524246,
   0.625673,
   0.679401,
   0.707056,
   0.713757,
   0.718101,
   0.724272,
   0.730935,
   0.732961,
   0.736219,
   0.737473,
   0.738316,
   0.733844,
   0.722971,
   0.720345,
   0.722131,
   0.723912,
   0.723606,
   0.722439,
   0.718327,
   0.713936,
   0.716688,
   0.711254,
   0.713244,
   0.715173,
   0.715319,
   0.715067,
   0.712931,
   0.707697,
   0.704287,
   0.697640,
   0.695840,
   0.701316,
   0.703966,
   0.699830,
   0.699403,
   0.693473,
   0.690683,
   0.688351,
   0.692025,
   0.696319,
   0.692819,
   0.693521,
   0.692190,
   0.689232,
   0.687868,
   0.688483,
   0.686134,
   0.683228,
   0.686027,
   0.685564,
   0.681278,
   0.680188,
   0.679125,
   0.678301,
   0.676247,
   0.675404,
   0.674480,
   0.673552,
   0.672698,
   0.671737,
   0.670716,
   0.669828,
   0.668949,
   0.668046,
   0.667141,
   0.666213,
   0.665316,
   0.664419,
   0.663516,
   0.662695,
   0.661996,
   0.661253,
   0.660520,
   0.659817,
   0.659202,
   0.658691,
   0.657941,
   0.657174,
   0.656434,
   0.655697,
   0.655175,
   0.655587,
   0.649291,
   0.649368,
   0.646326,
   0.645856,
   0.641633,
   0.636563,
   0.641051,
   0.639692,
   0.638332,
   0.636955,
   0.640580,
   0.641150,
   0.642493,
   0.646638,
   0.642981,
   0.640547,
   0.642149,
   0.636533,
   0.636535,
   0.640691,
   0.637219,
   0.634474,
   0.631972,
   0.632096,
   0.632654,
   0.632138,
   0.629175,
   0.622211,
   0.626057,
   0.631959,
   0.633870,
   0.638333,
   0.635970,
   0.629008,
   0.626343,
   0.632362,
   0.628518,
   0.617770,
   0.610330,
   0.605928,
   0.603370,
   0.586371,
   0.586692,
   0.593900,
   0.592984,
   0.593697,
   0.608860,
   0.617474,
   0.618979,
   0.616205,
   0.609272,
   0.598141,
   0.601699,
   0.600284,
   0.601578,
   0.598595,
   0.604112,
   0.597584,
   0.598781,
   0.590004,
   0.593100,
   0.593623,
   0.584093,
   0.592539,
   0.591221,
   0.584194,
   0.584644,
   0.589576,
   0.589197,
   0.591606,
   0.590182,
   0.590386,
   0.594971,
   0.589202,
   0.584119,
   0.579837,
   0.582152,
   0.581044,
   0.582375,
   0.583014,
   0.580619,
   0.570855,
   0.567820,
   0.572275,
   0.573008,
   0.575768,
   0.565404,
   0.563819,
   0.563585,
   0.566378,
   0.572855,
   0.573460,
   0.569935,
   0.563352,
   0.565296,
   0.567837,
   0.564351,
   0.562726,
   0.566798,
   0.565128,
   0.562822,
   0.561668,
   0.558415,
   0.553785,
   0.556810,
   0.554466,
   0.550587,
   0.550000,
   0.554315,
   0.552542,
   0.550317,
   0.552302,
   0.552427,
   0.550961,
   0.548480,
   0.547779,
   0.546892,
   0.546109,
   0.545290,
   0.544375,
   0.543490,
   0.542713,
   0.541891,
   0.541052,
   0.540309,
   0.539562,
   0.538769,
   0.537950,
   0.537134,
   0.536318,
   0.535502,
   0.534687,
   0.533872,
   0.533059,
   0.532247,
   0.531437,
   0.530628,
   0.529818,
   0.529046,
   0.528315,
   0.527634,
   0.527068,
   0.526508,
   0.525913,
   0.525342,
   0.524690,
   0.524425,
   0.524644,
   0.524486,
   0.524021,
   0.522141,
   0.521547,
   0.518882,
   0.514381,
   0.515335,
   0.516376,
   0.515553,
   0.516098,
   0.500066,
   0.484355,
   0.500013,
   0.512120,
   0.513224,
   0.511313,
   0.510394,
   0.508778,
   0.508608,
   0.509798,
   0.512269,
   0.510684,
   0.503540,
   0.500304,
   0.503029,
   0.503627,
   0.501839,
   0.502749,
   0.498055,
   0.500136,
   0.501124,
   0.498057,
   0.493986,
   0.497732,
   0.500153,
   0.492592,
   0.490955,
   0.492726,
   0.498267,
   0.493873,
   0.487344,
   0.486960,
   0.483975,
   0.483358,
   0.484690,
   0.480339,
   0.483230,
   0.487431,
   0.491309,
   0.486997,
   0.486809,
   0.487246,
   0.488950,
   0.486381,
   0.482742,
   0.483149,
   0.477626,
   0.476977,
   0.477062,
   0.481764,
   0.476715,
   0.476820,
   0.475836,
   0.473159,
   0.474124,
   0.469398,
   0.470961,
   0.473403,
   0.474436,
   0.474882,
   0.474247,
   0.470929,
   0.472260,
   0.469653,
   0.469602,
   0.466281,
   0.468912,
   0.469912,
   0.470617,
   0.469105,
   0.468293,
   0.469264,
   0.465585,
   0.462201,
   0.462888,
   0.459171,
   0.456192,
   0.454396,
   0.449211,
   0.445923,
   0.453075,
   0.453328,
   0.447242,
   0.451532,
   0.455127,
   0.449277,
   0.448830,
   0.460174,
   0.461839,
   0.456577,
   0.448850,
   0.440289,
   0.427210,
   0.442600,
   0.454457,
   0.452637,
   0.453264,
   0.448739,
   0.450689,
   0.451254,
   0.447205,
   0.444233,
   0.443559,
   0.444461,
   0.441680,
   0.442126,
   0.443890,
   0.441498,
   0.442536,
   0.439753,
   0.435576,
   0.434193,
   0.433739,
   0.430343,
   0.433730,
   0.436834,
   0.439323,
   0.438433,
   0.435926,
   0.435478,
   0.435929,
   0.434632,
   0.432737,
   0.430867,
   0.431155,
   0.432659,
   0.433813,
   0.432811,
   0.428648,
   0.427663,
   0.428157,
   0.434752,
   0.429578,
   0.424510,
   0.418632,
   0.413985,
   0.415411,
   0.421666,
   0.423497,
   0.419724,
   0.414449,
   0.417379,
   0.425040,
   0.420909,
   0.419488,
   0.397593,
   0.378391,
   0.393881,
   0.407945,
   0.408958,
   0.411389,
   0.410997,
   0.409198,
   0.394884,
   0.348077,
   0.338139,
   0.379412,
   0.397946,
   0.400258,
   0.410331,
   0.408203,
   0.407770,
   0.407794,
   0.399788,
   0.394489,
   0.385416,
   0.382034,
   0.391017,
   0.398072,
   0.401941,
   0.407719,
   0.406209,
   0.406342,
   0.407770,
   0.408075,
   0.402094,
   0.395499,
   0.380767,
   0.345421,
   0.328802,
   0.358622,
   0.378774,
   0.385597,
   0.389998,
   0.393987,
   0.399274,
   0.405108,
   0.409760,
   0.408198,
   0.405714,
   0.409266,
   0.403340,
   0.397490,
   0.393033,
   0.382231,
   0.371989,
   0.356859,
   0.361446,
   0.377963,
   0.390274,
   0.394354,
   0.394423,
   0.395683,
   0.394680,
   0.391782,
   0.389632,
   0.393894,
   0.390833,
   0.391966,
   0.397421,
   0.394688,
   0.391410,
   0.391802,
   0.386011,
   0.378389,
   0.372397,
   0.370275,
   0.358410,
   0.340662,
   0.334760,
   0.352045,
   0.361456,
   0.369083,
   0.377574,
   0.374633,
   0.381038,
   0.384496,
   0.386881,
   0.381536,
   0.382100,
   0.385553,
   0.378938,
   0.378678,
   0.386255,
   0.387154,
   0.387278,
   0.379567,
   0.375321,
   0.380253,
   0.371252,
   0.363474,
   0.368922,
   0.369601,
   0.356770,
   0.336060,
   0.347692,
   0.353307,
   0.328562,
   0.316527,
   0.302732,
   0.315574,
   0.330582,
   0.361083,
   0.376629,
   0.382370,
   0.393140,
   0.397868,
   0.382335,
   0.368043,
   0.360427,
   0.362826,
   0.354531,
   0.348524,
   0.352164,
   0.344440,
   0.346726,
   0.349517,
   0.361591,
   0.360114,
   0.366478,
   0.359739,
   0.363384,
   0.354536,
   0.349121,
   0.362051,
   0.369632,
   0.355391,
   0.345001,
   0.352044,
   0.361323,
   0.359673,
   0.346553,
   0.354362,
   0.357553,
   0.369903,
   0.360411,
   0.370531,
   0.363055,
   0.343942,
   0.330116,
   0.321843,
   0.308106,
   0.293182,
   0.304020,
   0.326849,
   0.338372,
   0.350160,
   0.350287,
   0.361743,
   0.363404,
   0.377892,
   0.379047,
   0.390402,
   0.374627,
   0.375943,
   0.364151,
   0.351784,
   0.346382,
   0.337812,
   0.329857,
   0.325948,
   0.328853,
   0.335718,
   0.326516,
   0.323901,
   0.308465,
   0.334344,
   0.302954,
   0.312861,
   0.332272,
   0.315599,
   0.328945,
   0.326418,
   0.350257,
   0.377070,
   0.394141,
   0.372576,
   0.361985,
   0.358145,
   0.350814,
   0.335892,
   0.325418,
   0.317649,
   0.335479,
   0.302854,
   0.308848,
   0.339422,
   0.323169,
   0.314020,
   0.328177,
   0.336751,
   0.331324,
   0.326492,
   0.332771,
   0.329716,
   0.327967,
   0.311667,
   0.330244,
   0.354174,
   0.341672,
   0.319446,
   0.309598,
   0.310414,
   0.316067,
   0.293701,
   0.264434,
   0.280391,
   0.275314,
   0.300896,
   0.296984,
   0.308283,
   0.326055,
   0.326285,
   0.321244,
   0.301034,
   0.306836,
   0.321056,
   0.318246,
   0.321881,
   0.311250,
   0.319050,
   0.317898,
   0.309146,
   0.309712,
   0.310448,
   0.299546,
   0.301435,
   0.306094,
   0.302185,
   0.296827,
   0.325371,
   0.312739,
   0.309693,
   0.316861,
   0.318236,
   0.322793,
   0.310665,
   0.310923,
   0.313763,
   0.308891,
   0.311238,
   0.306421,
   0.303292,
   0.300925,
   0.299803,
   0.301426,
   0.301254,
   0.296814,
   0.297993,
   0.298305,
   0.302949,
   0.302115,
   0.299155,
   0.298411,
   0.295912,
   0.292257,
   0.294359,
   0.296860,
   0.301756,
   0.301990,
   0.301958,
   0.301325,
   0.299281,
   0.298301,
   0.295916,
   0.293672,
   0.292944,
   0.294498,
   0.293614,
   0.295434,
   0.291237,
   0.294627,
   0.294578,
   0.292127,
   0.293043,
   0.289848,
   0.288935,
   0.290668,
   0.291263,
   0.290855,
   0.290580,
   0.289839,
   0.290049,
   0.287986,
   0.290318,
   0.290523,
   0.289912,
   0.290665,
   0.287419,
   0.287455,
   0.289657,
   0.287734,
   0.285722,
   0.286219,
   0.291280,
   0.290187,
   0.288456,
   0.288232,
   0.290314,
   0.286403,
   0.282548,
   0.279174,
   0.273249,
   0.266509,
   0.265497,
   0.254115,
   0.250726,
   0.251778,
   0.263603,
   0.260951,
   0.263221,
   0.268339,
   0.273695,
   0.273319,
   0.274920,
   0.268230,
   0.268430,
   0.267512,
   0.265866,
   0.264576,
   0.264727,
   0.267043,
   0.270803,
   0.274925,
   0.278329,
   0.280135,
   0.280270,
   0.278863,
   0.276042,
   0.272041,
   0.267501,
   0.263170,
   0.259794,
   0.257944,
   0.257489,
   0.258124,
   0.259543,
   0.261417,
   0.263321,
   0.264808,
   0.265430,
   0.264891,
   0.263505,
   0.261739,
   0.260059,
   0.258889,
   0.258484,
   0.259056,
   0.260818,
   0.263739,
   0.266820,
   0.268816,
   0.268486,
   0.265107,
   0.260034,
   0.255143,
   0.252308,
   0.252814,
   0.255572,
   0.258902,
   0.261125,
   0.261038,
   0.259344,
   0.257225,
   0.255859,
   0.256035,
   0.256962,
   0.257456,
   0.256331,
   0.252897,
   0.248437,
   0.244725,
   0.243538,
   0.246029,
   0.250866,
   0.256097,
   0.259767,
   0.260453,
   0.258845,
   0.256165,
   0.253633,
   0.252175,
   0.251545,
   0.251205,
   0.250613,
   0.249411,
   0.247956,
   0.246785,
   0.246435,
   0.247216,
   0.248532,
   0.249556,
   0.249465,
   0.247770,
   0.245333,
   0.243352,
   0.243025,
   0.245062,
   0.248228,
   0.250799,
   0.251052,
   0.247903,
   0.242820,
   0.237911,
   0.235285,
   0.236348,
   0.239702,
   0.243246,
   0.244882,
   0.243152,
   0.239164,
   0.234671,
   0.231425,
   0.230698,
   0.231854,
   0.233779,
   0.235358,
   0.235722,
   0.234990,
   0.233529,
   0.231702
};

#endif
