#ifndef _F2II_H_
#define _F2II_H_

/* spectrum for f2ii star           */
/* number of elements = 1895       */

static double _f2ii_lambda[] = {
   1150.000000,
   1155.000000,
   1160.000000,
   1165.000000,
   1170.000000,
   1175.000000,
   1180.000000,
   1185.000000,
   1190.000000,
   1195.000000,
   1200.000000,
   1205.000000,
   1210.000000,
   1215.000000,
   1220.000000,
   1225.000000,
   1230.000000,
   1235.000000,
   1240.000000,
   1245.000000,
   1250.000000,
   1255.000000,
   1260.000000,
   1265.000000,
   1270.000000,
   1275.000000,
   1280.000000,
   1285.000000,
   1290.000000,
   1295.000000,
   1300.000000,
   1305.000000,
   1310.000000,
   1315.000000,
   1320.000000,
   1325.000000,
   1330.000000,
   1335.000000,
   1340.000000,
   1345.000000,
   1350.000000,
   1355.000000,
   1360.000000,
   1365.000000,
   1370.000000,
   1375.000000,
   1380.000000,
   1385.000000,
   1390.000000,
   1395.000000,
   1400.000000,
   1405.000000,
   1410.000000,
   1415.000000,
   1420.000000,
   1425.000000,
   1430.000000,
   1435.000000,
   1440.000000,
   1445.000000,
   1450.000000,
   1455.000000,
   1460.000000,
   1465.000000,
   1470.000000,
   1475.000000,
   1480.000000,
   1485.000000,
   1490.000000,
   1495.000000,
   1500.000000,
   1505.000000,
   1510.000000,
   1515.000000,
   1520.000000,
   1525.000000,
   1530.000000,
   1535.000000,
   1540.000000,
   1545.000000,
   1550.000000,
   1555.000000,
   1560.000000,
   1565.000000,
   1570.000000,
   1575.000000,
   1580.000000,
   1585.000000,
   1590.000000,
   1595.000000,
   1600.000000,
   1605.000000,
   1610.000000,
   1615.000000,
   1620.000000,
   1625.000000,
   1630.000000,
   1635.000000,
   1640.000000,
   1645.000000,
   1650.000000,
   1655.000000,
   1660.000000,
   1665.000000,
   1670.000000,
   1675.000000,
   1680.000000,
   1685.000000,
   1690.000000,
   1695.000000,
   1700.000000,
   1705.000000,
   1710.000000,
   1715.000000,
   1720.000000,
   1725.000000,
   1730.000000,
   1735.000000,
   1740.000000,
   1745.000000,
   1750.000000,
   1755.000000,
   1760.000000,
   1765.000000,
   1770.000000,
   1775.000000,
   1780.000000,
   1785.000000,
   1790.000000,
   1795.000000,
   1800.000000,
   1805.000000,
   1810.000000,
   1815.000000,
   1820.000000,
   1825.000000,
   1830.000000,
   1835.000000,
   1840.000000,
   1845.000000,
   1850.000000,
   1855.000000,
   1860.000000,
   1865.000000,
   1870.000000,
   1875.000000,
   1880.000000,
   1885.000000,
   1890.000000,
   1895.000000,
   1900.000000,
   1905.000000,
   1910.000000,
   1915.000000,
   1920.000000,
   1925.000000,
   1930.000000,
   1935.000000,
   1940.000000,
   1945.000000,
   1950.000000,
   1955.000000,
   1960.000000,
   1965.000000,
   1970.000000,
   1975.000000,
   1980.000000,
   1985.000000,
   1990.000000,
   1995.000000,
   2000.000000,
   2005.000000,
   2010.000000,
   2015.000000,
   2020.000000,
   2025.000000,
   2030.000000,
   2035.000000,
   2040.000000,
   2045.000000,
   2050.000000,
   2055.000000,
   2060.000000,
   2065.000000,
   2070.000000,
   2075.000000,
   2080.000000,
   2085.000000,
   2090.000000,
   2095.000000,
   2100.000000,
   2105.000000,
   2110.000000,
   2115.000000,
   2120.000000,
   2125.000000,
   2130.000000,
   2135.000000,
   2140.000000,
   2145.000000,
   2150.000000,
   2155.000000,
   2160.000000,
   2165.000000,
   2170.000000,
   2175.000000,
   2180.000000,
   2185.000000,
   2190.000000,
   2195.000000,
   2200.000000,
   2205.000000,
   2210.000000,
   2215.000000,
   2220.000000,
   2225.000000,
   2230.000000,
   2235.000000,
   2240.000000,
   2245.000000,
   2250.000000,
   2255.000000,
   2260.000000,
   2265.000000,
   2270.000000,
   2275.000000,
   2280.000000,
   2285.000000,
   2290.000000,
   2295.000000,
   2300.000000,
   2305.000000,
   2310.000000,
   2315.000000,
   2320.000000,
   2325.000000,
   2330.000000,
   2335.000000,
   2340.000000,
   2345.000000,
   2350.000000,
   2355.000000,
   2360.000000,
   2365.000000,
   2370.000000,
   2375.000000,
   2380.000000,
   2385.000000,
   2390.000000,
   2395.000000,
   2400.000000,
   2405.000000,
   2410.000000,
   2415.000000,
   2420.000000,
   2425.000000,
   2430.000000,
   2435.000000,
   2440.000000,
   2445.000000,
   2450.000000,
   2455.000000,
   2460.000000,
   2465.000000,
   2470.000000,
   2475.000000,
   2480.000000,
   2485.000000,
   2490.000000,
   2495.000000,
   2500.000000,
   2505.000000,
   2510.000000,
   2515.000000,
   2520.000000,
   2525.000000,
   2530.000000,
   2535.000000,
   2540.000000,
   2545.000000,
   2550.000000,
   2555.000000,
   2560.000000,
   2565.000000,
   2570.000000,
   2575.000000,
   2580.000000,
   2585.000000,
   2590.000000,
   2595.000000,
   2600.000000,
   2605.000000,
   2610.000000,
   2615.000000,
   2620.000000,
   2625.000000,
   2630.000000,
   2635.000000,
   2640.000000,
   2645.000000,
   2650.000000,
   2655.000000,
   2660.000000,
   2665.000000,
   2670.000000,
   2675.000000,
   2680.000000,
   2685.000000,
   2690.000000,
   2695.000000,
   2700.000000,
   2705.000000,
   2710.000000,
   2715.000000,
   2720.000000,
   2725.000000,
   2730.000000,
   2735.000000,
   2740.000000,
   2745.000000,
   2750.000000,
   2755.000000,
   2760.000000,
   2765.000000,
   2770.000000,
   2775.000000,
   2780.000000,
   2785.000000,
   2790.000000,
   2795.000000,
   2800.000000,
   2805.000000,
   2810.000000,
   2815.000000,
   2820.000000,
   2825.000000,
   2830.000000,
   2835.000000,
   2840.000000,
   2845.000000,
   2850.000000,
   2855.000000,
   2860.000000,
   2865.000000,
   2870.000000,
   2875.000000,
   2880.000000,
   2885.000000,
   2890.000000,
   2895.000000,
   2900.000000,
   2905.000000,
   2910.000000,
   2915.000000,
   2920.000000,
   2925.000000,
   2930.000000,
   2935.000000,
   2940.000000,
   2945.000000,
   2950.000000,
   2955.000000,
   2960.000000,
   2965.000000,
   2970.000000,
   2975.000000,
   2980.000000,
   2985.000000,
   2990.000000,
   2995.000000,
   3000.000000,
   3005.000000,
   3010.000000,
   3015.000000,
   3020.000000,
   3025.000000,
   3030.000000,
   3035.000000,
   3040.000000,
   3045.000000,
   3050.000000,
   3055.000000,
   3060.000000,
   3065.000000,
   3070.000000,
   3075.000000,
   3080.000000,
   3085.000000,
   3090.000000,
   3095.000000,
   3100.000000,
   3105.000000,
   3110.000000,
   3115.000000,
   3120.000000,
   3125.000000,
   3130.000000,
   3135.000000,
   3140.000000,
   3145.000000,
   3150.000000,
   3155.000000,
   3160.000000,
   3165.000000,
   3170.000000,
   3175.000000,
   3180.000000,
   3185.000000,
   3190.000000,
   3195.000000,
   3200.000000,
   3205.000000,
   3210.000000,
   3215.000000,
   3220.000000,
   3225.000000,
   3230.000000,
   3235.000000,
   3240.000000,
   3245.000000,
   3250.000000,
   3255.000000,
   3260.000000,
   3265.000000,
   3270.000000,
   3275.000000,
   3280.000000,
   3285.000000,
   3290.000000,
   3295.000000,
   3300.000000,
   3305.000000,
   3310.000000,
   3315.000000,
   3320.000000,
   3325.000000,
   3330.000000,
   3335.000000,
   3340.000000,
   3345.000000,
   3350.000000,
   3355.000000,
   3360.000000,
   3365.000000,
   3370.000000,
   3375.000000,
   3380.000000,
   3385.000000,
   3390.000000,
   3395.000000,
   3400.000000,
   3405.000000,
   3410.000000,
   3415.000000,
   3420.000000,
   3425.000000,
   3430.000000,
   3435.000000,
   3440.000000,
   3445.000000,
   3450.000000,
   3455.000000,
   3460.000000,
   3465.000000,
   3470.000000,
   3475.000000,
   3480.000000,
   3485.000000,
   3490.000000,
   3495.000000,
   3500.000000,
   3505.000000,
   3510.000000,
   3515.000000,
   3520.000000,
   3525.000000,
   3530.000000,
   3535.000000,
   3540.000000,
   3545.000000,
   3550.000000,
   3555.000000,
   3560.000000,
   3565.000000,
   3570.000000,
   3575.000000,
   3580.000000,
   3585.000000,
   3590.000000,
   3595.000000,
   3600.000000,
   3605.000000,
   3610.000000,
   3615.000000,
   3620.000000,
   3625.000000,
   3630.000000,
   3635.000000,
   3640.000000,
   3645.000000,
   3650.000000,
   3655.000000,
   3660.000000,
   3665.000000,
   3670.000000,
   3675.000000,
   3680.000000,
   3685.000000,
   3690.000000,
   3695.000000,
   3700.000000,
   3705.000000,
   3710.000000,
   3715.000000,
   3720.000000,
   3725.000000,
   3730.000000,
   3735.000000,
   3740.000000,
   3745.000000,
   3750.000000,
   3755.000000,
   3760.000000,
   3765.000000,
   3770.000000,
   3775.000000,
   3780.000000,
   3785.000000,
   3790.000000,
   3795.000000,
   3800.000000,
   3805.000000,
   3810.000000,
   3815.000000,
   3820.000000,
   3825.000000,
   3830.000000,
   3835.000000,
   3840.000000,
   3845.000000,
   3850.000000,
   3855.000000,
   3860.000000,
   3865.000000,
   3870.000000,
   3875.000000,
   3880.000000,
   3885.000000,
   3890.000000,
   3895.000000,
   3900.000000,
   3905.000000,
   3910.000000,
   3915.000000,
   3920.000000,
   3925.000000,
   3930.000000,
   3935.000000,
   3940.000000,
   3945.000000,
   3950.000000,
   3955.000000,
   3960.000000,
   3965.000000,
   3970.000000,
   3975.000000,
   3980.000000,
   3985.000000,
   3990.000000,
   3995.000000,
   4000.000000,
   4005.000000,
   4010.000000,
   4015.000000,
   4020.000000,
   4025.000000,
   4030.000000,
   4035.000000,
   4040.000000,
   4045.000000,
   4050.000000,
   4055.000000,
   4060.000000,
   4065.000000,
   4070.000000,
   4075.000000,
   4080.000000,
   4085.000000,
   4090.000000,
   4095.000000,
   4100.000000,
   4105.000000,
   4110.000000,
   4115.000000,
   4120.000000,
   4125.000000,
   4130.000000,
   4135.000000,
   4140.000000,
   4145.000000,
   4150.000000,
   4155.000000,
   4160.000000,
   4165.000000,
   4170.000000,
   4175.000000,
   4180.000000,
   4185.000000,
   4190.000000,
   4195.000000,
   4200.000000,
   4205.000000,
   4210.000000,
   4215.000000,
   4220.000000,
   4225.000000,
   4230.000000,
   4235.000000,
   4240.000000,
   4245.000000,
   4250.000000,
   4255.000000,
   4260.000000,
   4265.000000,
   4270.000000,
   4275.000000,
   4280.000000,
   4285.000000,
   4290.000000,
   4295.000000,
   4300.000000,
   4305.000000,
   4310.000000,
   4315.000000,
   4320.000000,
   4325.000000,
   4330.000000,
   4335.000000,
   4340.000000,
   4345.000000,
   4350.000000,
   4355.000000,
   4360.000000,
   4365.000000,
   4370.000000,
   4375.000000,
   4380.000000,
   4385.000000,
   4390.000000,
   4395.000000,
   4400.000000,
   4405.000000,
   4410.000000,
   4415.000000,
   4420.000000,
   4425.000000,
   4430.000000,
   4435.000000,
   4440.000000,
   4445.000000,
   4450.000000,
   4455.000000,
   4460.000000,
   4465.000000,
   4470.000000,
   4475.000000,
   4480.000000,
   4485.000000,
   4490.000000,
   4495.000000,
   4500.000000,
   4505.000000,
   4510.000000,
   4515.000000,
   4520.000000,
   4525.000000,
   4530.000000,
   4535.000000,
   4540.000000,
   4545.000000,
   4550.000000,
   4555.000000,
   4560.000000,
   4565.000000,
   4570.000000,
   4575.000000,
   4580.000000,
   4585.000000,
   4590.000000,
   4595.000000,
   4600.000000,
   4605.000000,
   4610.000000,
   4615.000000,
   4620.000000,
   4625.000000,
   4630.000000,
   4635.000000,
   4640.000000,
   4645.000000,
   4650.000000,
   4655.000000,
   4660.000000,
   4665.000000,
   4670.000000,
   4675.000000,
   4680.000000,
   4685.000000,
   4690.000000,
   4695.000000,
   4700.000000,
   4705.000000,
   4710.000000,
   4715.000000,
   4720.000000,
   4725.000000,
   4730.000000,
   4735.000000,
   4740.000000,
   4745.000000,
   4750.000000,
   4755.000000,
   4760.000000,
   4765.000000,
   4770.000000,
   4775.000000,
   4780.000000,
   4785.000000,
   4790.000000,
   4795.000000,
   4800.000000,
   4805.000000,
   4810.000000,
   4815.000000,
   4820.000000,
   4825.000000,
   4830.000000,
   4835.000000,
   4840.000000,
   4845.000000,
   4850.000000,
   4855.000000,
   4860.000000,
   4865.000000,
   4870.000000,
   4875.000000,
   4880.000000,
   4885.000000,
   4890.000000,
   4895.000000,
   4900.000000,
   4905.000000,
   4910.000000,
   4915.000000,
   4920.000000,
   4925.000000,
   4930.000000,
   4935.000000,
   4940.000000,
   4945.000000,
   4950.000000,
   4955.000000,
   4960.000000,
   4965.000000,
   4970.000000,
   4975.000000,
   4980.000000,
   4985.000000,
   4990.000000,
   4995.000000,
   5000.000000,
   5005.000000,
   5010.000000,
   5015.000000,
   5020.000000,
   5025.000000,
   5030.000000,
   5035.000000,
   5040.000000,
   5045.000000,
   5050.000000,
   5055.000000,
   5060.000000,
   5065.000000,
   5070.000000,
   5075.000000,
   5080.000000,
   5085.000000,
   5090.000000,
   5095.000000,
   5100.000000,
   5105.000000,
   5110.000000,
   5115.000000,
   5120.000000,
   5125.000000,
   5130.000000,
   5135.000000,
   5140.000000,
   5145.000000,
   5150.000000,
   5155.000000,
   5160.000000,
   5165.000000,
   5170.000000,
   5175.000000,
   5180.000000,
   5185.000000,
   5190.000000,
   5195.000000,
   5200.000000,
   5205.000000,
   5210.000000,
   5215.000000,
   5220.000000,
   5225.000000,
   5230.000000,
   5235.000000,
   5240.000000,
   5245.000000,
   5250.000000,
   5255.000000,
   5260.000000,
   5265.000000,
   5270.000000,
   5275.000000,
   5280.000000,
   5285.000000,
   5290.000000,
   5295.000000,
   5300.000000,
   5305.000000,
   5310.000000,
   5315.000000,
   5320.000000,
   5325.000000,
   5330.000000,
   5335.000000,
   5340.000000,
   5345.000000,
   5350.000000,
   5355.000000,
   5360.000000,
   5365.000000,
   5370.000000,
   5375.000000,
   5380.000000,
   5385.000000,
   5390.000000,
   5395.000000,
   5400.000000,
   5405.000000,
   5410.000000,
   5415.000000,
   5420.000000,
   5425.000000,
   5430.000000,
   5435.000000,
   5440.000000,
   5445.000000,
   5450.000000,
   5455.000000,
   5460.000000,
   5465.000000,
   5470.000000,
   5475.000000,
   5480.000000,
   5485.000000,
   5490.000000,
   5495.000000,
   5500.000000,
   5505.000000,
   5510.000000,
   5515.000000,
   5520.000000,
   5525.000000,
   5530.000000,
   5535.000000,
   5540.000000,
   5545.000000,
   5550.000000,
   5555.000000,
   5560.000000,
   5565.000000,
   5570.000000,
   5575.000000,
   5580.000000,
   5585.000000,
   5590.000000,
   5595.000000,
   5600.000000,
   5605.000000,
   5610.000000,
   5615.000000,
   5620.000000,
   5625.000000,
   5630.000000,
   5635.000000,
   5640.000000,
   5645.000000,
   5650.000000,
   5655.000000,
   5660.000000,
   5665.000000,
   5670.000000,
   5675.000000,
   5680.000000,
   5685.000000,
   5690.000000,
   5695.000000,
   5700.000000,
   5705.000000,
   5710.000000,
   5715.000000,
   5720.000000,
   5725.000000,
   5730.000000,
   5735.000000,
   5740.000000,
   5745.000000,
   5750.000000,
   5755.000000,
   5760.000000,
   5765.000000,
   5770.000000,
   5775.000000,
   5780.000000,
   5785.000000,
   5790.000000,
   5795.000000,
   5800.000000,
   5805.000000,
   5810.000000,
   5815.000000,
   5820.000000,
   5825.000000,
   5830.000000,
   5835.000000,
   5840.000000,
   5845.000000,
   5850.000000,
   5855.000000,
   5860.000000,
   5865.000000,
   5870.000000,
   5875.000000,
   5880.000000,
   5885.000000,
   5890.000000,
   5895.000000,
   5900.000000,
   5905.000000,
   5910.000000,
   5915.000000,
   5920.000000,
   5925.000000,
   5930.000000,
   5935.000000,
   5940.000000,
   5945.000000,
   5950.000000,
   5955.000000,
   5960.000000,
   5965.000000,
   5970.000000,
   5975.000000,
   5980.000000,
   5985.000000,
   5990.000000,
   5995.000000,
   6000.000000,
   6005.000000,
   6010.000000,
   6015.000000,
   6020.000000,
   6025.000000,
   6030.000000,
   6035.000000,
   6040.000000,
   6045.000000,
   6050.000000,
   6055.000000,
   6060.000000,
   6065.000000,
   6070.000000,
   6075.000000,
   6080.000000,
   6085.000000,
   6090.000000,
   6095.000000,
   6100.000000,
   6105.000000,
   6110.000000,
   6115.000000,
   6120.000000,
   6125.000000,
   6130.000000,
   6135.000000,
   6140.000000,
   6145.000000,
   6150.000000,
   6155.000000,
   6160.000000,
   6165.000000,
   6170.000000,
   6175.000000,
   6180.000000,
   6185.000000,
   6190.000000,
   6195.000000,
   6200.000000,
   6205.000000,
   6210.000000,
   6215.000000,
   6220.000000,
   6225.000000,
   6230.000000,
   6235.000000,
   6240.000000,
   6245.000000,
   6250.000000,
   6255.000000,
   6260.000000,
   6265.000000,
   6270.000000,
   6275.000000,
   6280.000000,
   6285.000000,
   6290.000000,
   6295.000000,
   6300.000000,
   6305.000000,
   6310.000000,
   6315.000000,
   6320.000000,
   6325.000000,
   6330.000000,
   6335.000000,
   6340.000000,
   6345.000000,
   6350.000000,
   6355.000000,
   6360.000000,
   6365.000000,
   6370.000000,
   6375.000000,
   6380.000000,
   6385.000000,
   6390.000000,
   6395.000000,
   6400.000000,
   6405.000000,
   6410.000000,
   6415.000000,
   6420.000000,
   6425.000000,
   6430.000000,
   6435.000000,
   6440.000000,
   6445.000000,
   6450.000000,
   6455.000000,
   6460.000000,
   6465.000000,
   6470.000000,
   6475.000000,
   6480.000000,
   6485.000000,
   6490.000000,
   6495.000000,
   6500.000000,
   6505.000000,
   6510.000000,
   6515.000000,
   6520.000000,
   6525.000000,
   6530.000000,
   6535.000000,
   6540.000000,
   6545.000000,
   6550.000000,
   6555.000000,
   6560.000000,
   6565.000000,
   6570.000000,
   6575.000000,
   6580.000000,
   6585.000000,
   6590.000000,
   6595.000000,
   6600.000000,
   6605.000000,
   6610.000000,
   6615.000000,
   6620.000000,
   6625.000000,
   6630.000000,
   6635.000000,
   6640.000000,
   6645.000000,
   6650.000000,
   6655.000000,
   6660.000000,
   6665.000000,
   6670.000000,
   6675.000000,
   6680.000000,
   6685.000000,
   6690.000000,
   6695.000000,
   6700.000000,
   6705.000000,
   6710.000000,
   6715.000000,
   6720.000000,
   6725.000000,
   6730.000000,
   6735.000000,
   6740.000000,
   6745.000000,
   6750.000000,
   6755.000000,
   6760.000000,
   6765.000000,
   6770.000000,
   6775.000000,
   6780.000000,
   6785.000000,
   6790.000000,
   6795.000000,
   6800.000000,
   6805.000000,
   6810.000000,
   6815.000000,
   6820.000000,
   6825.000000,
   6830.000000,
   6835.000000,
   6840.000000,
   6845.000000,
   6850.000000,
   6855.000000,
   6860.000000,
   6865.000000,
   6870.000000,
   6875.000000,
   6880.000000,
   6885.000000,
   6890.000000,
   6895.000000,
   6900.000000,
   6905.000000,
   6910.000000,
   6915.000000,
   6920.000000,
   6925.000000,
   6930.000000,
   6935.000000,
   6940.000000,
   6945.000000,
   6950.000000,
   6955.000000,
   6960.000000,
   6965.000000,
   6970.000000,
   6975.000000,
   6980.000000,
   6985.000000,
   6990.000000,
   6995.000000,
   7000.000000,
   7005.000000,
   7010.000000,
   7015.000000,
   7020.000000,
   7025.000000,
   7030.000000,
   7035.000000,
   7040.000000,
   7045.000000,
   7050.000000,
   7055.000000,
   7060.000000,
   7065.000000,
   7070.000000,
   7075.000000,
   7080.000000,
   7085.000000,
   7090.000000,
   7095.000000,
   7100.000000,
   7105.000000,
   7110.000000,
   7115.000000,
   7120.000000,
   7125.000000,
   7130.000000,
   7135.000000,
   7140.000000,
   7145.000000,
   7150.000000,
   7155.000000,
   7160.000000,
   7165.000000,
   7170.000000,
   7175.000000,
   7180.000000,
   7185.000000,
   7190.000000,
   7195.000000,
   7200.000000,
   7205.000000,
   7210.000000,
   7215.000000,
   7220.000000,
   7225.000000,
   7230.000000,
   7235.000000,
   7240.000000,
   7245.000000,
   7250.000000,
   7255.000000,
   7260.000000,
   7265.000000,
   7270.000000,
   7275.000000,
   7280.000000,
   7285.000000,
   7290.000000,
   7295.000000,
   7300.000000,
   7305.000000,
   7310.000000,
   7315.000000,
   7320.000000,
   7325.000000,
   7330.000000,
   7335.000000,
   7340.000000,
   7345.000000,
   7350.000000,
   7355.000000,
   7360.000000,
   7365.000000,
   7370.000000,
   7375.000000,
   7380.000000,
   7385.000000,
   7390.000000,
   7395.000000,
   7400.000000,
   7405.000000,
   7410.000000,
   7415.000000,
   7420.000000,
   7425.000000,
   7430.000000,
   7435.000000,
   7440.000000,
   7445.000000,
   7450.000000,
   7455.000000,
   7460.000000,
   7465.000000,
   7470.000000,
   7475.000000,
   7480.000000,
   7485.000000,
   7490.000000,
   7495.000000,
   7500.000000,
   7505.000000,
   7510.000000,
   7515.000000,
   7520.000000,
   7525.000000,
   7530.000000,
   7535.000000,
   7540.000000,
   7545.000000,
   7550.000000,
   7555.000000,
   7560.000000,
   7565.000000,
   7570.000000,
   7575.000000,
   7580.000000,
   7585.000000,
   7590.000000,
   7595.000000,
   7600.000000,
   7605.000000,
   7610.000000,
   7615.000000,
   7620.000000,
   7625.000000,
   7630.000000,
   7635.000000,
   7640.000000,
   7645.000000,
   7650.000000,
   7655.000000,
   7660.000000,
   7665.000000,
   7670.000000,
   7675.000000,
   7680.000000,
   7685.000000,
   7690.000000,
   7695.000000,
   7700.000000,
   7705.000000,
   7710.000000,
   7715.000000,
   7720.000000,
   7725.000000,
   7730.000000,
   7735.000000,
   7740.000000,
   7745.000000,
   7750.000000,
   7755.000000,
   7760.000000,
   7765.000000,
   7770.000000,
   7775.000000,
   7780.000000,
   7785.000000,
   7790.000000,
   7795.000000,
   7800.000000,
   7805.000000,
   7810.000000,
   7815.000000,
   7820.000000,
   7825.000000,
   7830.000000,
   7835.000000,
   7840.000000,
   7845.000000,
   7850.000000,
   7855.000000,
   7860.000000,
   7865.000000,
   7870.000000,
   7875.000000,
   7880.000000,
   7885.000000,
   7890.000000,
   7895.000000,
   7900.000000,
   7905.000000,
   7910.000000,
   7915.000000,
   7920.000000,
   7925.000000,
   7930.000000,
   7935.000000,
   7940.000000,
   7945.000000,
   7950.000000,
   7955.000000,
   7960.000000,
   7965.000000,
   7970.000000,
   7975.000000,
   7980.000000,
   7985.000000,
   7990.000000,
   7995.000000,
   8000.000000,
   8005.000000,
   8010.000000,
   8015.000000,
   8020.000000,
   8025.000000,
   8030.000000,
   8035.000000,
   8040.000000,
   8045.000000,
   8050.000000,
   8055.000000,
   8060.000000,
   8065.000000,
   8070.000000,
   8075.000000,
   8080.000000,
   8085.000000,
   8090.000000,
   8095.000000,
   8100.000000,
   8105.000000,
   8110.000000,
   8115.000000,
   8120.000000,
   8125.000000,
   8130.000000,
   8135.000000,
   8140.000000,
   8145.000000,
   8150.000000,
   8155.000000,
   8160.000000,
   8165.000000,
   8170.000000,
   8175.000000,
   8180.000000,
   8185.000000,
   8190.000000,
   8195.000000,
   8200.000000,
   8205.000000,
   8210.000000,
   8215.000000,
   8220.000000,
   8225.000000,
   8230.000000,
   8235.000000,
   8240.000000,
   8245.000000,
   8250.000000,
   8255.000000,
   8260.000000,
   8265.000000,
   8270.000000,
   8275.000000,
   8280.000000,
   8285.000000,
   8290.000000,
   8295.000000,
   8300.000000,
   8305.000000,
   8310.000000,
   8315.000000,
   8320.000000,
   8325.000000,
   8330.000000,
   8335.000000,
   8340.000000,
   8345.000000,
   8350.000000,
   8355.000000,
   8360.000000,
   8365.000000,
   8370.000000,
   8375.000000,
   8380.000000,
   8385.000000,
   8390.000000,
   8395.000000,
   8400.000000,
   8405.000000,
   8410.000000,
   8415.000000,
   8420.000000,
   8425.000000,
   8430.000000,
   8435.000000,
   8440.000000,
   8445.000000,
   8450.000000,
   8455.000000,
   8460.000000,
   8465.000000,
   8470.000000,
   8475.000000,
   8480.000000,
   8485.000000,
   8490.000000,
   8495.000000,
   8500.000000,
   8505.000000,
   8510.000000,
   8515.000000,
   8520.000000,
   8525.000000,
   8530.000000,
   8535.000000,
   8540.000000,
   8545.000000,
   8550.000000,
   8555.000000,
   8560.000000,
   8565.000000,
   8570.000000,
   8575.000000,
   8580.000000,
   8585.000000,
   8590.000000,
   8595.000000,
   8600.000000,
   8605.000000,
   8610.000000,
   8615.000000,
   8620.000000,
   8625.000000,
   8630.000000,
   8635.000000,
   8640.000000,
   8645.000000,
   8650.000000,
   8655.000000,
   8660.000000,
   8665.000000,
   8670.000000,
   8675.000000,
   8680.000000,
   8685.000000,
   8690.000000,
   8695.000000,
   8700.000000,
   8705.000000,
   8710.000000,
   8715.000000,
   8720.000000,
   8725.000000,
   8730.000000,
   8735.000000,
   8740.000000,
   8745.000000,
   8750.000000,
   8755.000000,
   8760.000000,
   8765.000000,
   8770.000000,
   8775.000000,
   8780.000000,
   8785.000000,
   8790.000000,
   8795.000000,
   8800.000000,
   8805.000000,
   8810.000000,
   8815.000000,
   8820.000000,
   8825.000000,
   8830.000000,
   8835.000000,
   8840.000000,
   8845.000000,
   8850.000000,
   8855.000000,
   8860.000000,
   8865.000000,
   8870.000000,
   8875.000000,
   8880.000000,
   8885.000000,
   8890.000000,
   8895.000000,
   8900.000000,
   8905.000000,
   8910.000000,
   8915.000000,
   8920.000000,
   8925.000000,
   8930.000000,
   8935.000000,
   8940.000000,
   8945.000000,
   8950.000000,
   8955.000000,
   8960.000000,
   8965.000000,
   8970.000000,
   8975.000000,
   8980.000000,
   8985.000000,
   8990.000000,
   8995.000000,
   9000.000000,
   9005.000000,
   9010.000000,
   9015.000000,
   9020.000000,
   9025.000000,
   9030.000000,
   9035.000000,
   9040.000000,
   9045.000000,
   9050.000000,
   9055.000000,
   9060.000000,
   9065.000000,
   9070.000000,
   9075.000000,
   9080.000000,
   9085.000000,
   9090.000000,
   9095.000000,
   9100.000000,
   9105.000000,
   9110.000000,
   9115.000000,
   9120.000000,
   9125.000000,
   9130.000000,
   9135.000000,
   9140.000000,
   9145.000000,
   9150.000000,
   9155.000000,
   9160.000000,
   9165.000000,
   9170.000000,
   9175.000000,
   9180.000000,
   9185.000000,
   9190.000000,
   9195.000000,
   9200.000000,
   9205.000000,
   9210.000000,
   9215.000000,
   9220.000000,
   9225.000000,
   9230.000000,
   9235.000000,
   9240.000000,
   9245.000000,
   9250.000000,
   9255.000000,
   9260.000000,
   9265.000000,
   9270.000000,
   9275.000000,
   9280.000000,
   9285.000000,
   9290.000000,
   9295.000000,
   9300.000000,
   9305.000000,
   9310.000000,
   9315.000000,
   9320.000000,
   9325.000000,
   9330.000000,
   9335.000000,
   9340.000000,
   9345.000000,
   9350.000000,
   9355.000000,
   9360.000000,
   9365.000000,
   9370.000000,
   9375.000000,
   9380.000000,
   9385.000000,
   9390.000000,
   9395.000000,
   9400.000000,
   9405.000000,
   9410.000000,
   9415.000000,
   9420.000000,
   9425.000000,
   9430.000000,
   9435.000000,
   9440.000000,
   9445.000000,
   9450.000000,
   9455.000000,
   9460.000000,
   9465.000000,
   9470.000000,
   9475.000000,
   9480.000000,
   9485.000000,
   9490.000000,
   9495.000000,
   9500.000000,
   9505.000000,
   9510.000000,
   9515.000000,
   9520.000000,
   9525.000000,
   9530.000000,
   9535.000000,
   9540.000000,
   9545.000000,
   9550.000000,
   9555.000000,
   9560.000000,
   9565.000000,
   9570.000000,
   9575.000000,
   9580.000000,
   9585.000000,
   9590.000000,
   9595.000000,
   9600.000000,
   9605.000000,
   9610.000000,
   9615.000000,
   9620.000000,
   9625.000000,
   9630.000000,
   9635.000000,
   9640.000000,
   9645.000000,
   9650.000000,
   9655.000000,
   9660.000000,
   9665.000000,
   9670.000000,
   9675.000000,
   9680.000000,
   9685.000000,
   9690.000000,
   9695.000000,
   9700.000000,
   9705.000000,
   9710.000000,
   9715.000000,
   9720.000000,
   9725.000000,
   9730.000000,
   9735.000000,
   9740.000000,
   9745.000000,
   9750.000000,
   9755.000000,
   9760.000000,
   9765.000000,
   9770.000000,
   9775.000000,
   9780.000000,
   9785.000000,
   9790.000000,
   9795.000000,
   9800.000000,
   9805.000000,
   9810.000000,
   9815.000000,
   9820.000000,
   9825.000000,
   9830.000000,
   9835.000000,
   9840.000000,
   9845.000000,
   9850.000000,
   9855.000000,
   9860.000000,
   9865.000000,
   9870.000000,
   9875.000000,
   9880.000000,
   9885.000000,
   9890.000000,
   9895.000000,
   9900.000000,
   9905.000000,
   9910.000000,
   9915.000000,
   9920.000000,
   9925.000000,
   9930.000000,
   9935.000000,
   9940.000000,
   9945.000000,
   9950.000000,
   9955.000000,
   9960.000000,
   9965.000000,
   9970.000000,
   9975.000000,
   9980.000000,
   9985.000000,
   9990.000000,
   9995.000000,
   10000.000000,
   10005.000000,
   10010.000000,
   10015.000000,
   10020.000000,
   10025.000000,
   10030.000000,
   10035.000000,
   10040.000000,
   10045.000000,
   10050.000000,
   10055.000000,
   10060.000000,
   10065.000000,
   10070.000000,
   10075.000000,
   10080.000000,
   10085.000000,
   10090.000000,
   10095.000000,
   10100.000000,
   10105.000000,
   10110.000000,
   10115.000000,
   10120.000000,
   10125.000000,
   10130.000000,
   10135.000000,
   10140.000000,
   10145.000000,
   10150.000000,
   10155.000000,
   10160.000000,
   10165.000000,
   10170.000000,
   10175.000000,
   10180.000000,
   10185.000000,
   10190.000000,
   10195.000000,
   10200.000000,
   10205.000000,
   10210.000000,
   10215.000000,
   10220.000000,
   10225.000000,
   10230.000000,
   10235.000000,
   10240.000000,
   10245.000000,
   10250.000000,
   10255.000000,
   10260.000000,
   10265.000000,
   10270.000000,
   10275.000000,
   10280.000000,
   10285.000000,
   10290.000000,
   10295.000000,
   10300.000000,
   10305.000000,
   10310.000000,
   10315.000000,
   10320.000000,
   10325.000000,
   10330.000000,
   10335.000000,
   10340.000000,
   10345.000000,
   10350.000000,
   10355.000000,
   10360.000000,
   10365.000000,
   10370.000000,
   10375.000000,
   10380.000000,
   10385.000000,
   10390.000000,
   10395.000000,
   10400.000000,
   10405.000000,
   10410.000000,
   10415.000000,
   10420.000000,
   10425.000000,
   10430.000000,
   10435.000000,
   10440.000000,
   10445.000000,
   10450.000000,
   10455.000000,
   10460.000000,
   10465.000000,
   10470.000000,
   10475.000000,
   10480.000000,
   10485.000000,
   10490.000000,
   10495.000000,
   10500.000000,
   10505.000000,
   10510.000000,
   10515.000000,
   10520.000000,
   10525.000000,
   10530.000000,
   10535.000000,
   10540.000000,
   10545.000000,
   10550.000000,
   10555.000000,
   10560.000000,
   10565.000000,
   10570.000000,
   10575.000000,
   10580.000000,
   10585.000000,
   10590.000000,
   10595.000000,
   10600.000000,
   10605.000000,
   10610.000000,
   10615.000000,
   10620.000000
};

static double _f2ii_flux[] = {
   0.000000,
   0.000000,
   0.000000,
   0.000000,
   0.000000,
   0.000000,
   0.000000,
   0.000000,
   0.000000,
   0.000000,
   0.000000,
   0.000000,
   0.000000,
   0.000000,
   0.000000,
   0.000000,
   0.000000,
   0.000000,
   0.000000,
   0.000000,
   0.000000,
   0.000000,
   0.000000,
   0.000000,
   0.000000,
   0.000000,
   0.000000,
   0.000000,
   0.000000,
   0.000000,
   0.000000,
   0.000000,
   0.000000,
   0.000000,
   0.000000,
   0.000000,
   0.000000,
   0.000000,
   0.000000,
   0.000000,
   0.000000,
   0.000000,
   0.000001,
   0.000001,
   0.000002,
   0.000002,
   0.000002,
   0.000002,
   0.000002,
   0.000001,
   0.000000,
   0.000000,
   0.000000,
   0.000000,
   0.000000,
   0.000000,
   0.000000,
   0.000000,
   0.000000,
   0.000000,
   0.000000,
   0.000005,
   0.000012,
   0.000018,
   0.000024,
   0.000028,
   0.000030,
   0.000029,
   0.000024,
   0.000015,
   0.000000,
   0.000000,
   0.000000,
   0.000000,
   0.000000,
   0.000000,
   0.000000,
   0.000000,
   0.000000,
   0.000000,
   0.000000,
   0.000078,
   0.000181,
   0.000309,
   0.000464,
   0.000647,
   0.000859,
   0.001101,
   0.001375,
   0.001681,
   0.002022,
   0.002397,
   0.002805,
   0.003246,
   0.003716,
   0.004215,
   0.004741,
   0.005291,
   0.005865,
   0.006460,
   0.007075,
   0.007714,
   0.008401,
   0.009166,
   0.010038,
   0.011048,
   0.012225,
   0.013599,
   0.015201,
   0.017060,
   0.019205,
   0.021654,
   0.024375,
   0.027323,
   0.030453,
   0.033720,
   0.037079,
   0.040486,
   0.043894,
   0.047260,
   0.050539,
   0.053691,
   0.056696,
   0.059541,
   0.062211,
   0.064693,
   0.066973,
   0.069036,
   0.070869,
   0.072457,
   0.073787,
   0.074858,
   0.075720,
   0.076439,
   0.077080,
   0.077706,
   0.078382,
   0.079174,
   0.080145,
   0.081360,
   0.082884,
   0.084757,
   0.086923,
   0.089301,
   0.091810,
   0.094371,
   0.096902,
   0.099323,
   0.101554,
   0.103513,
   0.105121,
   0.106321,
   0.107152,
   0.107678,
   0.107963,
   0.108069,
   0.108061,
   0.108002,
   0.107955,
   0.107985,
   0.108154,
   0.108514,
   0.109067,
   0.109804,
   0.110714,
   0.111788,
   0.113016,
   0.114389,
   0.115895,
   0.117527,
   0.119272,
   0.121119,
   0.123041,
   0.125007,
   0.126987,
   0.128951,
   0.130868,
   0.132708,
   0.134442,
   0.136038,
   0.137466,
   0.138710,
   0.139801,
   0.140787,
   0.141712,
   0.142624,
   0.143568,
   0.144590,
   0.145736,
   0.147053,
   0.148585,
   0.150361,
   0.152337,
   0.154449,
   0.156635,
   0.158832,
   0.160978,
   0.163009,
   0.164863,
   0.166478,
   0.167790,
   0.168754,
   0.169394,
   0.169751,
   0.169866,
   0.169781,
   0.169536,
   0.169174,
   0.168734,
   0.168259,
   0.167790,
   0.167360,
   0.166979,
   0.166646,
   0.166363,
   0.166130,
   0.165950,
   0.165823,
   0.165749,
   0.165731,
   0.165768,
   0.165852,
   0.165929,
   0.165937,
   0.165811,
   0.165487,
   0.164904,
   0.163996,
   0.162700,
   0.160954,
   0.158693,
   0.155881,
   0.152592,
   0.148928,
   0.144991,
   0.140881,
   0.136699,
   0.132549,
   0.128530,
   0.124744,
   0.121294,
   0.118266,
   0.115696,
   0.113606,
   0.112017,
   0.110950,
   0.110428,
   0.110472,
   0.111104,
   0.112346,
   0.114218,
   0.116721,
   0.119761,
   0.123223,
   0.126992,
   0.130953,
   0.134990,
   0.138988,
   0.142832,
   0.146406,
   0.149596,
   0.152306,
   0.154525,
   0.156262,
   0.157525,
   0.158324,
   0.158667,
   0.158564,
   0.158022,
   0.157051,
   0.155660,
   0.153871,
   0.151756,
   0.149401,
   0.146893,
   0.144317,
   0.141759,
   0.139304,
   0.137040,
   0.135051,
   0.133423,
   0.132249,
   0.131643,
   0.131725,
   0.132617,
   0.134439,
   0.137312,
   0.141356,
   0.146693,
   0.153442,
   0.161725,
   0.171569,
   0.182633,
   0.194480,
   0.206676,
   0.218785,
   0.230373,
   0.241004,
   0.250243,
   0.257654,
   0.262803,
   0.265383,
   0.265599,
   0.263787,
   0.260280,
   0.255412,
   0.249519,
   0.242934,
   0.235991,
   0.229026,
   0.222372,
   0.216299,
   0.210819,
   0.205878,
   0.201424,
   0.197403,
   0.193762,
   0.190449,
   0.187409,
   0.184591,
   0.181941,
   0.179426,
   0.177098,
   0.175030,
   0.173292,
   0.171958,
   0.171098,
   0.170786,
   0.171094,
   0.172092,
   0.173854,
   0.176425,
   0.179742,
   0.183715,
   0.188254,
   0.193271,
   0.198675,
   0.204377,
   0.210286,
   0.216315,
   0.222372,
   0.228387,
   0.234360,
   0.240312,
   0.246262,
   0.252230,
   0.258234,
   0.264296,
   0.270435,
   0.276669,
   0.283019,
   0.289491,
   0.296036,
   0.302594,
   0.309102,
   0.315499,
   0.321724,
   0.327715,
   0.333410,
   0.338747,
   0.343666,
   0.348122,
   0.352142,
   0.355771,
   0.359054,
   0.362036,
   0.364761,
   0.367274,
   0.369620,
   0.371843,
   0.373989,
   0.376095,
   0.378172,
   0.380224,
   0.382254,
   0.384267,
   0.386267,
   0.388256,
   0.390240,
   0.392221,
   0.394205,
   0.396193,
   0.398188,
   0.400189,
   0.402198,
   0.404213,
   0.406237,
   0.408269,
   0.410310,
   0.412360,
   0.414421,
   0.416490,
   0.418563,
   0.420636,
   0.422702,
   0.424755,
   0.426790,
   0.428802,
   0.430783,
   0.432730,
   0.434636,
   0.436500,
   0.438340,
   0.440178,
   0.442036,
   0.443936,
   0.445901,
   0.447953,
   0.450114,
   0.452406,
   0.454852,
   0.457466,
   0.464911,
   0.473720,
   0.481889,
   0.460807,
   0.415449,
   0.451954,
   0.495813,
   0.478667,
   0.454304,
   0.481179,
   0.514281,
   0.502298,
   0.472205,
   0.461985,
   0.475379,
   0.504667,
   0.530516,
   0.536861,
   0.532323,
   0.528366,
   0.523132,
   0.513222,
   0.502364,
   0.495437,
   0.494766,
   0.500966,
   0.510351,
   0.517707,
   0.515997,
   0.501838,
   0.488266,
   0.487349,
   0.490851,
   0.489289,
   0.488497,
   0.495892,
   0.509916,
   0.524966,
   0.528247,
   0.511840,
   0.494508,
   0.496016,
   0.513454,
   0.534854,
   0.534703,
   0.498652,
   0.470526,
   0.489125,
   0.514946,
   0.506088,
   0.489377,
   0.495787,
   0.504178,
   0.490426,
   0.470575,
   0.464831,
   0.469874,
   0.477589,
   0.484193,
   0.488297,
   0.447772,
   0.458846,
   0.480269,
   0.466401,
   0.451596,
   0.457416,
   0.492054,
   0.524856,
   0.505445,
   0.510425,
   0.479171,
   0.458306,
   0.455010,
   0.452327,
   0.476313,
   0.482051,
   0.469462,
   0.458011,
   0.495858,
   0.496493,
   0.464473,
   0.447900,
   0.465560,
   0.495898,
   0.484534,
   0.484647,
   0.493509,
   0.499803,
   0.518191,
   0.542632,
   0.541796,
   0.540988,
   0.537696,
   0.556047,
   0.559785,
   0.576848,
   0.629998,
   0.654481,
   0.670573,
   0.666410,
   0.677348,
   0.749350,
   0.764092,
   0.763334,
   0.764456,
   0.747422,
   0.841179,
   0.768212,
   0.719674,
   0.865785,
   0.930400,
   0.867774,
   0.796805,
   0.964553,
   1.175358,
   1.150527,
   0.996866,
   0.854661,
   0.895606,
   1.077532,
   1.228699,
   1.222678,
   1.217089,
   1.050757,
   0.865854,
   0.778317,
   0.952699,
   1.165312,
   1.290181,
   1.348881,
   1.389638,
   1.422416,
   1.402603,
   1.319428,
   1.171790,
   0.944896,
   0.874138,
   1.060952,
   1.219270,
   1.295351,
   1.361604,
   1.369550,
   1.295109,
   1.000987,
   0.627138,
   0.670185,
   1.031908,
   1.213709,
   1.264330,
   1.249665,
   1.065322,
   0.687878,
   0.582433,
   0.933701,
   1.256771,
   1.387549,
   1.436142,
   1.430861,
   1.426901,
   1.447896,
   1.485873,
   1.532849,
   1.533160,
   1.476042,
   1.446271,
   1.491793,
   1.519824,
   1.491440,
   1.476545,
   1.456915,
   1.468337,
   1.456817,
   1.431275,
   1.370952,
   1.373440,
   1.423462,
   1.383204,
   1.146191,
   0.927775,
   1.059751,
   1.295575,
   1.404545,
   1.403936,
   1.363026,
   1.352835,
   1.438984,
   1.508967,
   1.494339,
   1.461487,
   1.442294,
   1.452120,
   1.457643,
   1.375771,
   1.337481,
   1.353740,
   1.393768,
   1.448590,
   1.419175,
   1.365603,
   1.392439,
   1.443856,
   1.431643,
   1.413560,
   1.370457,
   1.367312,
   1.369111,
   1.409935,
   1.385991,
   1.369930,
   1.393562,
   1.403606,
   1.413693,
   1.372092,
   1.381848,
   1.420375,
   1.384142,
   1.310948,
   1.266146,
   1.214092,
   1.257893,
   1.297243,
   1.326270,
   1.356118,
   1.351433,
   1.272389,
   1.051992,
   0.861914,
   1.013057,
   1.216529,
   1.354821,
   1.409563,
   1.415432,
   1.376509,
   1.380859,
   1.382697,
   1.332984,
   1.335649,
   1.314322,
   1.313650,
   1.332155,
   1.353488,
   1.320014,
   1.325688,
   1.352773,
   1.355145,
   1.360834,
   1.355816,
   1.330854,
   1.350313,
   1.332000,
   1.299021,
   1.295792,
   1.312994,
   1.352122,
   1.342097,
   1.344701,
   1.340815,
   1.379933,
   1.408593,
   1.425306,
   1.422414,
   1.381713,
   1.336619,
   1.303909,
   1.280419,
   1.342965,
   1.366787,
   1.315203,
   1.255774,
   1.282673,
   1.331127,
   1.356027,
   1.352809,
   1.332874,
   1.279030,
   1.271037,
   1.298944,
   1.315789,
   1.334990,
   1.362673,
   1.365808,
   1.337658,
   1.338400,
   1.336604,
   1.322125,
   1.332934,
   1.348557,
   1.335338,
   1.332151,
   1.337779,
   1.344411,
   1.305593,
   1.306040,
   1.341395,
   1.373501,
   1.391341,
   1.370451,
   1.350550,
   1.317773,
   1.307561,
   1.300926,
   1.316938,
   1.341248,
   1.332791,
   1.289132,
   1.291535,
   1.316215,
   1.323061,
   1.319369,
   1.287074,
   1.262495,
   1.250186,
   1.290325,
   1.308480,
   1.312661,
   1.289577,
   1.291799,
   1.299434,
   1.297131,
   1.270007,
   1.252373,
   1.260276,
   1.265595,
   1.264011,
   1.257590,
   1.250640,
   1.240520,
   1.202199,
   1.109211,
   0.925055,
   0.795846,
   0.909118,
   1.045375,
   1.123351,
   1.152780,
   1.147662,
   1.160980,
   1.211951,
   1.237083,
   1.239055,
   1.216763,
   1.183978,
   1.143487,
   1.181424,
   1.220724,
   1.219661,
   1.214016,
   1.229224,
   1.236602,
   1.216985,
   1.217087,
   1.244296,
   1.233707,
   1.206717,
   1.160921,
   1.171822,
   1.206259,
   1.203532,
   1.174510,
   1.137014,
   1.125216,
   1.109784,
   1.126510,
   1.167440,
   1.194532,
   1.178331,
   1.133325,
   1.142863,
   1.162027,
   1.185583,
   1.191409,
   1.178306,
   1.164882,
   1.136338,
   1.120690,
   1.151603,
   1.181579,
   1.154785,
   1.138298,
   1.148952,
   1.156554,
   1.169859,
   1.149667,
   1.123795,
   1.100760,
   1.097974,
   1.099266,
   1.096350,
   1.099580,
   1.110062,
   1.112881,
   1.035176,
   1.002183,
   1.082137,
   1.110472,
   1.064990,
   1.037174,
   1.039027,
   1.056802,
   1.064376,
   1.085349,
   1.102386,
   1.111729,
   1.052948,
   1.023957,
   1.043601,
   1.091298,
   1.100667,
   1.098299,
   1.083663,
   1.065540,
   1.014476,
   0.997123,
   1.005690,
   1.042409,
   1.083326,
   1.111758,
   1.104189,
   1.088024,
   1.092728,
   1.093793,
   1.074195,
   1.064490,
   1.041631,
   1.034940,
   1.032078,
   1.054922,
   1.075229,
   1.080415,
   1.092376,
   1.079502,
   1.047201,
   1.032408,
   1.044869,
   1.066241,
   1.077890,
   1.067473,
   1.033108,
   1.010888,
   1.010382,
   1.007177,
   1.015597,
   1.018115,
   1.019098,
   1.017541,
   1.039068,
   1.065883,
   1.041249,
   1.019046,
   1.009820,
   1.027150,
   1.043017,
   1.036714,
   1.015712,
   1.000293,
   1.013399,
   1.021310,
   1.030301,
   1.029651,
   1.009879,
   0.994448,
   1.009309,
   1.020859,
   0.996643,
   0.985403,
   1.002578,
   1.015382,
   1.025557,
   1.025222,
   1.015732,
   1.015454,
   1.010057,
   0.992091,
   1.009474,
   1.019872,
   0.984700,
   0.968760,
   0.964804,
   0.960614,
   0.992999,
   1.020565,
   0.999336,
   0.985373,
   0.989710,
   0.997103,
   1.000186,
   0.991888,
   0.997531,
   0.992476,
   0.967246,
   0.950919,
   0.960992,
   0.973921,
   0.981060,
   0.973687,
   0.956140,
   0.964305,
   0.978941,
   0.975175,
   0.947028,
   0.933858,
   0.954023,
   0.981805,
   0.996654,
   0.985415,
   0.976831,
   0.971460,
   0.958848,
   0.960255,
   0.959328,
   0.961992,
   0.963207,
   0.957117,
   0.952090,
   0.931570,
   0.942735,
   0.956209,
   0.944284,
   0.954507,
   0.954388,
   0.948294,
   0.944861,
   0.957300,
   0.957251,
   0.959171,
   0.961331,
   0.965311,
   0.943720,
   0.933275,
   0.921561,
   0.912788,
   0.933767,
   0.937804,
   0.939710,
   0.925997,
   0.895458,
   0.855073,
   0.872434,
   0.899494,
   0.921926,
   0.918299,
   0.914503,
   0.913392,
   0.910615,
   0.907896,
   0.907122,
   0.909123,
   0.909545,
   0.898597,
   0.897408,
   0.904700,
   0.907380,
   0.900780,
   0.895703,
   0.891379,
   0.894753,
   0.893418,
   0.894684,
   0.879033,
   0.873337,
   0.863161,
   0.860545,
   0.857360,
   0.858912,
   0.873217,
   0.871895,
   0.869039,
   0.866489,
   0.863107,
   0.854887,
   0.856033,
   0.856730,
   0.858505,
   0.855403,
   0.847715,
   0.849775,
   0.847908,
   0.845414,
   0.840170,
   0.837108,
   0.848581,
   0.843606,
   0.836356,
   0.836968,
   0.836842,
   0.819982,
   0.794745,
   0.799886,
   0.807869,
   0.807252,
   0.797623,
   0.793407,
   0.803658,
   0.811700,
   0.822010,
   0.820462,
   0.812104,
   0.814154,
   0.820649,
   0.823734,
   0.820456,
   0.812463,
   0.808363,
   0.806052,
   0.799657,
   0.790456,
   0.783878,
   0.775718,
   0.770180,
   0.780238,
   0.798869,
   0.806978,
   0.803989,
   0.786494,
   0.768684,
   0.777780,
   0.790302,
   0.783190,
   0.772376,
   0.773282,
   0.785754,
   0.777149,
   0.766360,
   0.777267,
   0.785525,
   0.780030,
   0.771878,
   0.768348,
   0.767460,
   0.773908,
   0.772363,
   0.764960,
   0.761828,
   0.762651,
   0.769067,
   0.769723,
   0.766235,
   0.761284,
   0.758897,
   0.755678,
   0.748391,
   0.741096,
   0.738678,
   0.746045,
   0.751698,
   0.745430,
   0.746228,
   0.749864,
   0.747597,
   0.732076,
   0.720760,
   0.732148,
   0.739277,
   0.737719,
   0.734223,
   0.728235,
   0.721602,
   0.700217,
   0.699392,
   0.727852,
   0.737683,
   0.727157,
   0.720189,
   0.720549,
   0.720911,
   0.717797,
   0.709587,
   0.703605,
   0.672663,
   0.603149,
   0.524696,
   0.503491,
   0.590609,
   0.658752,
   0.685880,
   0.695030,
   0.696861,
   0.699824,
   0.709918,
   0.711763,
   0.713260,
   0.718152,
   0.719861,
   0.714929,
   0.708266,
   0.702108,
   0.705240,
   0.703018,
   0.704006,
   0.702707,
   0.701873,
   0.698400,
   0.700950,
   0.696405,
   0.689981,
   0.695299,
   0.700977,
   0.698802,
   0.693060,
   0.690446,
   0.689617,
   0.684815,
   0.680588,
   0.685651,
   0.687975,
   0.687013,
   0.681818,
   0.674926,
   0.669951,
   0.673584,
   0.674922,
   0.678347,
   0.674610,
   0.676575,
   0.679074,
   0.675957,
   0.674633,
   0.670612,
   0.669068,
   0.670785,
   0.670166,
   0.670989,
   0.669302,
   0.667134,
   0.660890,
   0.659665,
   0.659325,
   0.658771,
   0.657939,
   0.657220,
   0.656486,
   0.655761,
   0.655083,
   0.654373,
   0.653692,
   0.652992,
   0.652277,
   0.651433,
   0.650581,
   0.649724,
   0.648853,
   0.648037,
   0.647400,
   0.646664,
   0.645894,
   0.645107,
   0.644478,
   0.644000,
   0.643301,
   0.642397,
   0.642011,
   0.642168,
   0.640817,
   0.634099,
   0.624759,
   0.625932,
   0.624983,
   0.622252,
   0.616374,
   0.614173,
   0.617324,
   0.614269,
   0.610708,
   0.613774,
   0.618698,
   0.618078,
   0.616796,
   0.619034,
   0.619907,
   0.617765,
   0.612874,
   0.613369,
   0.612634,
   0.616037,
   0.616418,
   0.612531,
   0.607521,
   0.606625,
   0.608529,
   0.607878,
   0.602201,
   0.595729,
   0.595144,
   0.598063,
   0.601116,
   0.604313,
   0.608870,
   0.601142,
   0.595143,
   0.598906,
   0.599291,
   0.582217,
   0.568934,
   0.565103,
   0.558399,
   0.544124,
   0.536585,
   0.542166,
   0.550806,
   0.555149,
   0.569443,
   0.578590,
   0.576563,
   0.573247,
   0.570302,
   0.561119,
   0.558037,
   0.558218,
   0.560818,
   0.558987,
   0.565780,
   0.562941,
   0.564522,
   0.558502,
   0.555659,
   0.549837,
   0.537973,
   0.545968,
   0.558324,
   0.551195,
   0.544860,
   0.550736,
   0.556517,
   0.557285,
   0.557114,
   0.563738,
   0.570288,
   0.567167,
   0.561258,
   0.556913,
   0.556713,
   0.557494,
   0.558624,
   0.557500,
   0.556801,
   0.548712,
   0.539762,
   0.546211,
   0.551962,
   0.548766,
   0.538347,
   0.534050,
   0.536050,
   0.540192,
   0.548014,
   0.549270,
   0.546812,
   0.538553,
   0.535581,
   0.540969,
   0.543734,
   0.542252,
   0.543761,
   0.541031,
   0.537289,
   0.537232,
   0.540640,
   0.535713,
   0.535810,
   0.531401,
   0.526213,
   0.527091,
   0.532267,
   0.530942,
   0.529248,
   0.529347,
   0.536033,
   0.532974,
   0.531357,
   0.530203,
   0.529602,
   0.528946,
   0.528102,
   0.527177,
   0.526275,
   0.525479,
   0.524686,
   0.523889,
   0.523060,
   0.522393,
   0.521646,
   0.520911,
   0.520173,
   0.519434,
   0.518692,
   0.517949,
   0.517204,
   0.516457,
   0.515708,
   0.514957,
   0.514204,
   0.513449,
   0.512668,
   0.511841,
   0.511004,
   0.510239,
   0.509550,
   0.508759,
   0.507817,
   0.506949,
   0.506293,
   0.506125,
   0.505619,
   0.504597,
   0.504700,
   0.505513,
   0.504575,
   0.499032,
   0.494407,
   0.499301,
   0.503512,
   0.499121,
   0.487865,
   0.469270,
   0.473336,
   0.485614,
   0.495459,
   0.495785,
   0.486952,
   0.487700,
   0.491452,
   0.491963,
   0.492421,
   0.489864,
   0.487645,
   0.482985,
   0.482996,
   0.482589,
   0.481253,
   0.481076,
   0.483849,
   0.483088,
   0.482065,
   0.478556,
   0.475698,
   0.479092,
   0.481529,
   0.474618,
   0.470511,
   0.474706,
   0.478218,
   0.474945,
   0.469686,
   0.467002,
   0.464226,
   0.464179,
   0.468366,
   0.463888,
   0.462430,
   0.469415,
   0.472325,
   0.472938,
   0.471305,
   0.472630,
   0.474348,
   0.473944,
   0.470867,
   0.464017,
   0.457649,
   0.460744,
   0.461976,
   0.463573,
   0.462613,
   0.459833,
   0.456641,
   0.459319,
   0.458792,
   0.455538,
   0.451043,
   0.455134,
   0.457608,
   0.459934,
   0.458862,
   0.458980,
   0.458251,
   0.456165,
   0.453448,
   0.450747,
   0.448797,
   0.453251,
   0.454384,
   0.453967,
   0.453846,
   0.451999,
   0.448802,
   0.442494,
   0.440324,
   0.435548,
   0.430499,
   0.425889,
   0.423600,
   0.419999,
   0.423134,
   0.422348,
   0.413252,
   0.412238,
   0.414045,
   0.408931,
   0.406085,
   0.425470,
   0.441085,
   0.435400,
   0.421161,
   0.395299,
   0.378688,
   0.398771,
   0.425405,
   0.429612,
   0.423727,
   0.420140,
   0.419293,
   0.429066,
   0.432353,
   0.421430,
   0.411487,
   0.410753,
   0.412340,
   0.415036,
   0.416553,
   0.416577,
   0.415657,
   0.413643,
   0.409333,
   0.410497,
   0.408661,
   0.402153,
   0.400477,
   0.407824,
   0.414745,
   0.415972,
   0.413469,
   0.417837,
   0.420997,
   0.416167,
   0.413724,
   0.413037,
   0.411207,
   0.412380,
   0.416031,
   0.419206,
   0.417243,
   0.411705,
   0.409332,
   0.417485,
   0.422226,
   0.411536,
   0.397976,
   0.393867,
   0.399408,
   0.415938,
   0.417694,
   0.401578,
   0.384809,
   0.396526,
   0.416941,
   0.426520,
   0.419649,
   0.386894,
   0.352080,
   0.361873,
   0.387815,
   0.397481,
   0.403796,
   0.407143,
   0.404113,
   0.389911,
   0.351568,
   0.308683,
   0.322551,
   0.357755,
   0.388633,
   0.401289,
   0.396138,
   0.394224,
   0.393731,
   0.389190,
   0.375967,
   0.351545,
   0.338468,
   0.367148,
   0.399181,
   0.409607,
   0.410973,
   0.413287,
   0.418248,
   0.420980,
   0.418086,
   0.412876,
   0.405938,
   0.397369,
   0.369427,
   0.326598,
   0.329899,
   0.360818,
   0.386904,
   0.393808,
   0.390181,
   0.392899,
   0.403931,
   0.408979,
   0.407528,
   0.400930,
   0.395860,
   0.391784,
   0.387032,
   0.379501,
   0.367956,
   0.354431,
   0.335732,
   0.330201,
   0.340906,
   0.355701,
   0.369888,
   0.370409,
   0.370273,
   0.370825,
   0.374177,
   0.371753,
   0.391059,
   0.387681,
   0.382490,
   0.390420,
   0.393770,
   0.380776,
   0.383979,
   0.384103,
   0.381421,
   0.376456,
   0.368570,
   0.359832,
   0.338690,
   0.320183,
   0.337409,
   0.357470,
   0.366671,
   0.371959,
   0.375248,
   0.379232,
   0.382437,
   0.381921,
   0.379385,
   0.375539,
   0.382912,
   0.373616,
   0.366788,
   0.376256,
   0.381667,
   0.379755,
   0.372743,
   0.377266,
   0.376611,
   0.369938,
   0.369027,
   0.368293,
   0.364820,
   0.358508,
   0.341256,
   0.350694,
   0.347927,
   0.338218,
   0.324238,
   0.299504,
   0.310638,
   0.330775,
   0.355290,
   0.370639,
   0.380333,
   0.380731,
   0.385047,
   0.380915,
   0.369851,
   0.354796,
   0.358286,
   0.354616,
   0.346121,
   0.347559,
   0.338886,
   0.337219,
   0.346940,
   0.356470,
   0.355106,
   0.352915,
   0.357069,
   0.361119,
   0.352311,
   0.347412,
   0.354625,
   0.361541,
   0.359120,
   0.341094,
   0.346756,
   0.355232,
   0.358375,
   0.350481,
   0.350873,
   0.358750,
   0.363452,
   0.358721,
   0.360332,
   0.359937,
   0.345297,
   0.330050,
   0.322850,
   0.317501,
   0.298019,
   0.309073,
   0.324833,
   0.335601,
   0.345369,
   0.352084,
   0.350850,
   0.360258,
   0.372216,
   0.379012,
   0.370691,
   0.375846,
   0.373511,
   0.366951,
   0.359691,
   0.350836,
   0.342626,
   0.326415,
   0.311393,
   0.314289,
   0.313946,
   0.299441,
   0.294023,
   0.274955,
   0.318546,
   0.299280,
   0.308487,
   0.328726,
   0.311063,
   0.321992,
   0.323831,
   0.336412,
   0.369949,
   0.393544,
   0.378455,
   0.363893,
   0.352240,
   0.355772,
   0.344313,
   0.337748,
   0.309724,
   0.331773,
   0.293739,
   0.296535,
   0.337487,
   0.323287,
   0.311626,
   0.328729,
   0.345323,
   0.341997,
   0.327913,
   0.330815,
   0.353097,
   0.320617,
   0.305432,
   0.339037,
   0.360336,
   0.348190,
   0.314207,
   0.305784,
   0.321059,
   0.320912,
   0.306635,
   0.275982,
   0.276473,
   0.292855,
   0.297598,
   0.302996,
   0.315813,
   0.339604,
   0.335846,
   0.317877,
   0.319593,
   0.309011,
   0.328778,
   0.325834,
   0.328883,
   0.329640,
   0.315054,
   0.308438,
   0.320463,
   0.316078,
   0.324865,
   0.315503,
   0.315717,
   0.314662,
   0.304290,
   0.300970,
   0.313933,
   0.322844,
   0.320225,
   0.321018,
   0.326735,
   0.326685,
   0.324131,
   0.322661,
   0.323977,
   0.322750,
   0.322325,
   0.324988,
   0.316440,
   0.305197,
   0.303781,
   0.302501,
   0.300602,
   0.301130,
   0.301354,
   0.308463,
   0.313354,
   0.318255,
   0.305319,
   0.303762,
   0.309909,
   0.303836,
   0.302439,
   0.300604,
   0.309320,
   0.311555,
   0.312187,
   0.299071,
   0.309504,
   0.310011,
   0.307253,
   0.304821,
   0.300945,
   0.299590,
   0.301187,
   0.308420,
   0.305602,
   0.298234,
   0.301781,
   0.293530,
   0.295621,
   0.298152,
   0.301149,
   0.301881,
   0.304143,
   0.296877,
   0.301445,
   0.304429,
   0.302111,
   0.300667,
   0.297848,
   0.294064,
   0.294629,
   0.295884,
   0.307285,
   0.294957,
   0.296859,
   0.300450,
   0.288080,
   0.296289,
   0.301974,
   0.296981,
   0.288649,
   0.292581,
   0.292785,
   0.286462,
   0.281953,
   0.281073,
   0.278349,
   0.279112,
   0.273850,
   0.270335,
   0.266703,
   0.263913,
   0.274901,
   0.268317,
   0.274580,
   0.276517,
   0.282517,
   0.284230,
   0.286075,
   0.292868,
   0.285628,
   0.286757,
   0.288362,
   0.280846,
   0.281311,
   0.283084,
   0.288097,
   0.279576,
   0.290670,
   0.292998,
   0.282008,
   0.281421,
   0.280935,
   0.280535,
   0.280208,
   0.279940,
   0.279716,
   0.279521,
   0.279343,
   0.279166,
   0.278976,
   0.278762,
   0.278522,
   0.278260,
   0.277977,
   0.277674,
   0.277355,
   0.277020,
   0.276672,
   0.276312,
   0.275943,
   0.275567,
   0.275183,
   0.274793,
   0.274396,
   0.273994,
   0.273585,
   0.273171,
   0.272752,
   0.272329,
   0.271900,
   0.271468,
   0.271035,
   0.270603,
   0.270176,
   0.269755,
   0.269345,
   0.268947,
   0.268564,
   0.268200,
   0.267857,
   0.267537,
   0.267234,
   0.266945,
   0.266663,
   0.266384,
   0.266101,
   0.265809,
   0.265502,
   0.265176,
   0.264825,
   0.264445,
   0.264041,
   0.263621,
   0.263190,
   0.262756,
   0.262326,
   0.261907,
   0.261505,
   0.261128,
   0.260782,
   0.260472,
   0.260197,
   0.259952,
   0.259734,
   0.259538,
   0.259361,
   0.259198,
   0.259047,
   0.258902,
   0.258760,
   0.258618,
   0.258475,
   0.258331,
   0.258186,
   0.258040,
   0.257894,
   0.257746,
   0.257597,
   0.257448,
   0.257297,
   0.257146,
   0.256994,
   0.256840,
   0.256686,
   0.256531,
   0.256375,
   0.256218,
   0.256060,
   0.255902,
   0.255742,
   0.255582,
   0.255420,
   0.255258,
   0.255095
};

#endif
