#ifndef _F2V_H_
#define _F2V_H_

/* spectrum for f2v star           */
/* number of elements = 1895       */

static double _f2v_lambda[] = {
   1150.000000,
   1155.000000,
   1160.000000,
   1165.000000,
   1170.000000,
   1175.000000,
   1180.000000,
   1185.000000,
   1190.000000,
   1195.000000,
   1200.000000,
   1205.000000,
   1210.000000,
   1215.000000,
   1220.000000,
   1225.000000,
   1230.000000,
   1235.000000,
   1240.000000,
   1245.000000,
   1250.000000,
   1255.000000,
   1260.000000,
   1265.000000,
   1270.000000,
   1275.000000,
   1280.000000,
   1285.000000,
   1290.000000,
   1295.000000,
   1300.000000,
   1305.000000,
   1310.000000,
   1315.000000,
   1320.000000,
   1325.000000,
   1330.000000,
   1335.000000,
   1340.000000,
   1345.000000,
   1350.000000,
   1355.000000,
   1360.000000,
   1365.000000,
   1370.000000,
   1375.000000,
   1380.000000,
   1385.000000,
   1390.000000,
   1395.000000,
   1400.000000,
   1405.000000,
   1410.000000,
   1415.000000,
   1420.000000,
   1425.000000,
   1430.000000,
   1435.000000,
   1440.000000,
   1445.000000,
   1450.000000,
   1455.000000,
   1460.000000,
   1465.000000,
   1470.000000,
   1475.000000,
   1480.000000,
   1485.000000,
   1490.000000,
   1495.000000,
   1500.000000,
   1505.000000,
   1510.000000,
   1515.000000,
   1520.000000,
   1525.000000,
   1530.000000,
   1535.000000,
   1540.000000,
   1545.000000,
   1550.000000,
   1555.000000,
   1560.000000,
   1565.000000,
   1570.000000,
   1575.000000,
   1580.000000,
   1585.000000,
   1590.000000,
   1595.000000,
   1600.000000,
   1605.000000,
   1610.000000,
   1615.000000,
   1620.000000,
   1625.000000,
   1630.000000,
   1635.000000,
   1640.000000,
   1645.000000,
   1650.000000,
   1655.000000,
   1660.000000,
   1665.000000,
   1670.000000,
   1675.000000,
   1680.000000,
   1685.000000,
   1690.000000,
   1695.000000,
   1700.000000,
   1705.000000,
   1710.000000,
   1715.000000,
   1720.000000,
   1725.000000,
   1730.000000,
   1735.000000,
   1740.000000,
   1745.000000,
   1750.000000,
   1755.000000,
   1760.000000,
   1765.000000,
   1770.000000,
   1775.000000,
   1780.000000,
   1785.000000,
   1790.000000,
   1795.000000,
   1800.000000,
   1805.000000,
   1810.000000,
   1815.000000,
   1820.000000,
   1825.000000,
   1830.000000,
   1835.000000,
   1840.000000,
   1845.000000,
   1850.000000,
   1855.000000,
   1860.000000,
   1865.000000,
   1870.000000,
   1875.000000,
   1880.000000,
   1885.000000,
   1890.000000,
   1895.000000,
   1900.000000,
   1905.000000,
   1910.000000,
   1915.000000,
   1920.000000,
   1925.000000,
   1930.000000,
   1935.000000,
   1940.000000,
   1945.000000,
   1950.000000,
   1955.000000,
   1960.000000,
   1965.000000,
   1970.000000,
   1975.000000,
   1980.000000,
   1985.000000,
   1990.000000,
   1995.000000,
   2000.000000,
   2005.000000,
   2010.000000,
   2015.000000,
   2020.000000,
   2025.000000,
   2030.000000,
   2035.000000,
   2040.000000,
   2045.000000,
   2050.000000,
   2055.000000,
   2060.000000,
   2065.000000,
   2070.000000,
   2075.000000,
   2080.000000,
   2085.000000,
   2090.000000,
   2095.000000,
   2100.000000,
   2105.000000,
   2110.000000,
   2115.000000,
   2120.000000,
   2125.000000,
   2130.000000,
   2135.000000,
   2140.000000,
   2145.000000,
   2150.000000,
   2155.000000,
   2160.000000,
   2165.000000,
   2170.000000,
   2175.000000,
   2180.000000,
   2185.000000,
   2190.000000,
   2195.000000,
   2200.000000,
   2205.000000,
   2210.000000,
   2215.000000,
   2220.000000,
   2225.000000,
   2230.000000,
   2235.000000,
   2240.000000,
   2245.000000,
   2250.000000,
   2255.000000,
   2260.000000,
   2265.000000,
   2270.000000,
   2275.000000,
   2280.000000,
   2285.000000,
   2290.000000,
   2295.000000,
   2300.000000,
   2305.000000,
   2310.000000,
   2315.000000,
   2320.000000,
   2325.000000,
   2330.000000,
   2335.000000,
   2340.000000,
   2345.000000,
   2350.000000,
   2355.000000,
   2360.000000,
   2365.000000,
   2370.000000,
   2375.000000,
   2380.000000,
   2385.000000,
   2390.000000,
   2395.000000,
   2400.000000,
   2405.000000,
   2410.000000,
   2415.000000,
   2420.000000,
   2425.000000,
   2430.000000,
   2435.000000,
   2440.000000,
   2445.000000,
   2450.000000,
   2455.000000,
   2460.000000,
   2465.000000,
   2470.000000,
   2475.000000,
   2480.000000,
   2485.000000,
   2490.000000,
   2495.000000,
   2500.000000,
   2505.000000,
   2510.000000,
   2515.000000,
   2520.000000,
   2525.000000,
   2530.000000,
   2535.000000,
   2540.000000,
   2545.000000,
   2550.000000,
   2555.000000,
   2560.000000,
   2565.000000,
   2570.000000,
   2575.000000,
   2580.000000,
   2585.000000,
   2590.000000,
   2595.000000,
   2600.000000,
   2605.000000,
   2610.000000,
   2615.000000,
   2620.000000,
   2625.000000,
   2630.000000,
   2635.000000,
   2640.000000,
   2645.000000,
   2650.000000,
   2655.000000,
   2660.000000,
   2665.000000,
   2670.000000,
   2675.000000,
   2680.000000,
   2685.000000,
   2690.000000,
   2695.000000,
   2700.000000,
   2705.000000,
   2710.000000,
   2715.000000,
   2720.000000,
   2725.000000,
   2730.000000,
   2735.000000,
   2740.000000,
   2745.000000,
   2750.000000,
   2755.000000,
   2760.000000,
   2765.000000,
   2770.000000,
   2775.000000,
   2780.000000,
   2785.000000,
   2790.000000,
   2795.000000,
   2800.000000,
   2805.000000,
   2810.000000,
   2815.000000,
   2820.000000,
   2825.000000,
   2830.000000,
   2835.000000,
   2840.000000,
   2845.000000,
   2850.000000,
   2855.000000,
   2860.000000,
   2865.000000,
   2870.000000,
   2875.000000,
   2880.000000,
   2885.000000,
   2890.000000,
   2895.000000,
   2900.000000,
   2905.000000,
   2910.000000,
   2915.000000,
   2920.000000,
   2925.000000,
   2930.000000,
   2935.000000,
   2940.000000,
   2945.000000,
   2950.000000,
   2955.000000,
   2960.000000,
   2965.000000,
   2970.000000,
   2975.000000,
   2980.000000,
   2985.000000,
   2990.000000,
   2995.000000,
   3000.000000,
   3005.000000,
   3010.000000,
   3015.000000,
   3020.000000,
   3025.000000,
   3030.000000,
   3035.000000,
   3040.000000,
   3045.000000,
   3050.000000,
   3055.000000,
   3060.000000,
   3065.000000,
   3070.000000,
   3075.000000,
   3080.000000,
   3085.000000,
   3090.000000,
   3095.000000,
   3100.000000,
   3105.000000,
   3110.000000,
   3115.000000,
   3120.000000,
   3125.000000,
   3130.000000,
   3135.000000,
   3140.000000,
   3145.000000,
   3150.000000,
   3155.000000,
   3160.000000,
   3165.000000,
   3170.000000,
   3175.000000,
   3180.000000,
   3185.000000,
   3190.000000,
   3195.000000,
   3200.000000,
   3205.000000,
   3210.000000,
   3215.000000,
   3220.000000,
   3225.000000,
   3230.000000,
   3235.000000,
   3240.000000,
   3245.000000,
   3250.000000,
   3255.000000,
   3260.000000,
   3265.000000,
   3270.000000,
   3275.000000,
   3280.000000,
   3285.000000,
   3290.000000,
   3295.000000,
   3300.000000,
   3305.000000,
   3310.000000,
   3315.000000,
   3320.000000,
   3325.000000,
   3330.000000,
   3335.000000,
   3340.000000,
   3345.000000,
   3350.000000,
   3355.000000,
   3360.000000,
   3365.000000,
   3370.000000,
   3375.000000,
   3380.000000,
   3385.000000,
   3390.000000,
   3395.000000,
   3400.000000,
   3405.000000,
   3410.000000,
   3415.000000,
   3420.000000,
   3425.000000,
   3430.000000,
   3435.000000,
   3440.000000,
   3445.000000,
   3450.000000,
   3455.000000,
   3460.000000,
   3465.000000,
   3470.000000,
   3475.000000,
   3480.000000,
   3485.000000,
   3490.000000,
   3495.000000,
   3500.000000,
   3505.000000,
   3510.000000,
   3515.000000,
   3520.000000,
   3525.000000,
   3530.000000,
   3535.000000,
   3540.000000,
   3545.000000,
   3550.000000,
   3555.000000,
   3560.000000,
   3565.000000,
   3570.000000,
   3575.000000,
   3580.000000,
   3585.000000,
   3590.000000,
   3595.000000,
   3600.000000,
   3605.000000,
   3610.000000,
   3615.000000,
   3620.000000,
   3625.000000,
   3630.000000,
   3635.000000,
   3640.000000,
   3645.000000,
   3650.000000,
   3655.000000,
   3660.000000,
   3665.000000,
   3670.000000,
   3675.000000,
   3680.000000,
   3685.000000,
   3690.000000,
   3695.000000,
   3700.000000,
   3705.000000,
   3710.000000,
   3715.000000,
   3720.000000,
   3725.000000,
   3730.000000,
   3735.000000,
   3740.000000,
   3745.000000,
   3750.000000,
   3755.000000,
   3760.000000,
   3765.000000,
   3770.000000,
   3775.000000,
   3780.000000,
   3785.000000,
   3790.000000,
   3795.000000,
   3800.000000,
   3805.000000,
   3810.000000,
   3815.000000,
   3820.000000,
   3825.000000,
   3830.000000,
   3835.000000,
   3840.000000,
   3845.000000,
   3850.000000,
   3855.000000,
   3860.000000,
   3865.000000,
   3870.000000,
   3875.000000,
   3880.000000,
   3885.000000,
   3890.000000,
   3895.000000,
   3900.000000,
   3905.000000,
   3910.000000,
   3915.000000,
   3920.000000,
   3925.000000,
   3930.000000,
   3935.000000,
   3940.000000,
   3945.000000,
   3950.000000,
   3955.000000,
   3960.000000,
   3965.000000,
   3970.000000,
   3975.000000,
   3980.000000,
   3985.000000,
   3990.000000,
   3995.000000,
   4000.000000,
   4005.000000,
   4010.000000,
   4015.000000,
   4020.000000,
   4025.000000,
   4030.000000,
   4035.000000,
   4040.000000,
   4045.000000,
   4050.000000,
   4055.000000,
   4060.000000,
   4065.000000,
   4070.000000,
   4075.000000,
   4080.000000,
   4085.000000,
   4090.000000,
   4095.000000,
   4100.000000,
   4105.000000,
   4110.000000,
   4115.000000,
   4120.000000,
   4125.000000,
   4130.000000,
   4135.000000,
   4140.000000,
   4145.000000,
   4150.000000,
   4155.000000,
   4160.000000,
   4165.000000,
   4170.000000,
   4175.000000,
   4180.000000,
   4185.000000,
   4190.000000,
   4195.000000,
   4200.000000,
   4205.000000,
   4210.000000,
   4215.000000,
   4220.000000,
   4225.000000,
   4230.000000,
   4235.000000,
   4240.000000,
   4245.000000,
   4250.000000,
   4255.000000,
   4260.000000,
   4265.000000,
   4270.000000,
   4275.000000,
   4280.000000,
   4285.000000,
   4290.000000,
   4295.000000,
   4300.000000,
   4305.000000,
   4310.000000,
   4315.000000,
   4320.000000,
   4325.000000,
   4330.000000,
   4335.000000,
   4340.000000,
   4345.000000,
   4350.000000,
   4355.000000,
   4360.000000,
   4365.000000,
   4370.000000,
   4375.000000,
   4380.000000,
   4385.000000,
   4390.000000,
   4395.000000,
   4400.000000,
   4405.000000,
   4410.000000,
   4415.000000,
   4420.000000,
   4425.000000,
   4430.000000,
   4435.000000,
   4440.000000,
   4445.000000,
   4450.000000,
   4455.000000,
   4460.000000,
   4465.000000,
   4470.000000,
   4475.000000,
   4480.000000,
   4485.000000,
   4490.000000,
   4495.000000,
   4500.000000,
   4505.000000,
   4510.000000,
   4515.000000,
   4520.000000,
   4525.000000,
   4530.000000,
   4535.000000,
   4540.000000,
   4545.000000,
   4550.000000,
   4555.000000,
   4560.000000,
   4565.000000,
   4570.000000,
   4575.000000,
   4580.000000,
   4585.000000,
   4590.000000,
   4595.000000,
   4600.000000,
   4605.000000,
   4610.000000,
   4615.000000,
   4620.000000,
   4625.000000,
   4630.000000,
   4635.000000,
   4640.000000,
   4645.000000,
   4650.000000,
   4655.000000,
   4660.000000,
   4665.000000,
   4670.000000,
   4675.000000,
   4680.000000,
   4685.000000,
   4690.000000,
   4695.000000,
   4700.000000,
   4705.000000,
   4710.000000,
   4715.000000,
   4720.000000,
   4725.000000,
   4730.000000,
   4735.000000,
   4740.000000,
   4745.000000,
   4750.000000,
   4755.000000,
   4760.000000,
   4765.000000,
   4770.000000,
   4775.000000,
   4780.000000,
   4785.000000,
   4790.000000,
   4795.000000,
   4800.000000,
   4805.000000,
   4810.000000,
   4815.000000,
   4820.000000,
   4825.000000,
   4830.000000,
   4835.000000,
   4840.000000,
   4845.000000,
   4850.000000,
   4855.000000,
   4860.000000,
   4865.000000,
   4870.000000,
   4875.000000,
   4880.000000,
   4885.000000,
   4890.000000,
   4895.000000,
   4900.000000,
   4905.000000,
   4910.000000,
   4915.000000,
   4920.000000,
   4925.000000,
   4930.000000,
   4935.000000,
   4940.000000,
   4945.000000,
   4950.000000,
   4955.000000,
   4960.000000,
   4965.000000,
   4970.000000,
   4975.000000,
   4980.000000,
   4985.000000,
   4990.000000,
   4995.000000,
   5000.000000,
   5005.000000,
   5010.000000,
   5015.000000,
   5020.000000,
   5025.000000,
   5030.000000,
   5035.000000,
   5040.000000,
   5045.000000,
   5050.000000,
   5055.000000,
   5060.000000,
   5065.000000,
   5070.000000,
   5075.000000,
   5080.000000,
   5085.000000,
   5090.000000,
   5095.000000,
   5100.000000,
   5105.000000,
   5110.000000,
   5115.000000,
   5120.000000,
   5125.000000,
   5130.000000,
   5135.000000,
   5140.000000,
   5145.000000,
   5150.000000,
   5155.000000,
   5160.000000,
   5165.000000,
   5170.000000,
   5175.000000,
   5180.000000,
   5185.000000,
   5190.000000,
   5195.000000,
   5200.000000,
   5205.000000,
   5210.000000,
   5215.000000,
   5220.000000,
   5225.000000,
   5230.000000,
   5235.000000,
   5240.000000,
   5245.000000,
   5250.000000,
   5255.000000,
   5260.000000,
   5265.000000,
   5270.000000,
   5275.000000,
   5280.000000,
   5285.000000,
   5290.000000,
   5295.000000,
   5300.000000,
   5305.000000,
   5310.000000,
   5315.000000,
   5320.000000,
   5325.000000,
   5330.000000,
   5335.000000,
   5340.000000,
   5345.000000,
   5350.000000,
   5355.000000,
   5360.000000,
   5365.000000,
   5370.000000,
   5375.000000,
   5380.000000,
   5385.000000,
   5390.000000,
   5395.000000,
   5400.000000,
   5405.000000,
   5410.000000,
   5415.000000,
   5420.000000,
   5425.000000,
   5430.000000,
   5435.000000,
   5440.000000,
   5445.000000,
   5450.000000,
   5455.000000,
   5460.000000,
   5465.000000,
   5470.000000,
   5475.000000,
   5480.000000,
   5485.000000,
   5490.000000,
   5495.000000,
   5500.000000,
   5505.000000,
   5510.000000,
   5515.000000,
   5520.000000,
   5525.000000,
   5530.000000,
   5535.000000,
   5540.000000,
   5545.000000,
   5550.000000,
   5555.000000,
   5560.000000,
   5565.000000,
   5570.000000,
   5575.000000,
   5580.000000,
   5585.000000,
   5590.000000,
   5595.000000,
   5600.000000,
   5605.000000,
   5610.000000,
   5615.000000,
   5620.000000,
   5625.000000,
   5630.000000,
   5635.000000,
   5640.000000,
   5645.000000,
   5650.000000,
   5655.000000,
   5660.000000,
   5665.000000,
   5670.000000,
   5675.000000,
   5680.000000,
   5685.000000,
   5690.000000,
   5695.000000,
   5700.000000,
   5705.000000,
   5710.000000,
   5715.000000,
   5720.000000,
   5725.000000,
   5730.000000,
   5735.000000,
   5740.000000,
   5745.000000,
   5750.000000,
   5755.000000,
   5760.000000,
   5765.000000,
   5770.000000,
   5775.000000,
   5780.000000,
   5785.000000,
   5790.000000,
   5795.000000,
   5800.000000,
   5805.000000,
   5810.000000,
   5815.000000,
   5820.000000,
   5825.000000,
   5830.000000,
   5835.000000,
   5840.000000,
   5845.000000,
   5850.000000,
   5855.000000,
   5860.000000,
   5865.000000,
   5870.000000,
   5875.000000,
   5880.000000,
   5885.000000,
   5890.000000,
   5895.000000,
   5900.000000,
   5905.000000,
   5910.000000,
   5915.000000,
   5920.000000,
   5925.000000,
   5930.000000,
   5935.000000,
   5940.000000,
   5945.000000,
   5950.000000,
   5955.000000,
   5960.000000,
   5965.000000,
   5970.000000,
   5975.000000,
   5980.000000,
   5985.000000,
   5990.000000,
   5995.000000,
   6000.000000,
   6005.000000,
   6010.000000,
   6015.000000,
   6020.000000,
   6025.000000,
   6030.000000,
   6035.000000,
   6040.000000,
   6045.000000,
   6050.000000,
   6055.000000,
   6060.000000,
   6065.000000,
   6070.000000,
   6075.000000,
   6080.000000,
   6085.000000,
   6090.000000,
   6095.000000,
   6100.000000,
   6105.000000,
   6110.000000,
   6115.000000,
   6120.000000,
   6125.000000,
   6130.000000,
   6135.000000,
   6140.000000,
   6145.000000,
   6150.000000,
   6155.000000,
   6160.000000,
   6165.000000,
   6170.000000,
   6175.000000,
   6180.000000,
   6185.000000,
   6190.000000,
   6195.000000,
   6200.000000,
   6205.000000,
   6210.000000,
   6215.000000,
   6220.000000,
   6225.000000,
   6230.000000,
   6235.000000,
   6240.000000,
   6245.000000,
   6250.000000,
   6255.000000,
   6260.000000,
   6265.000000,
   6270.000000,
   6275.000000,
   6280.000000,
   6285.000000,
   6290.000000,
   6295.000000,
   6300.000000,
   6305.000000,
   6310.000000,
   6315.000000,
   6320.000000,
   6325.000000,
   6330.000000,
   6335.000000,
   6340.000000,
   6345.000000,
   6350.000000,
   6355.000000,
   6360.000000,
   6365.000000,
   6370.000000,
   6375.000000,
   6380.000000,
   6385.000000,
   6390.000000,
   6395.000000,
   6400.000000,
   6405.000000,
   6410.000000,
   6415.000000,
   6420.000000,
   6425.000000,
   6430.000000,
   6435.000000,
   6440.000000,
   6445.000000,
   6450.000000,
   6455.000000,
   6460.000000,
   6465.000000,
   6470.000000,
   6475.000000,
   6480.000000,
   6485.000000,
   6490.000000,
   6495.000000,
   6500.000000,
   6505.000000,
   6510.000000,
   6515.000000,
   6520.000000,
   6525.000000,
   6530.000000,
   6535.000000,
   6540.000000,
   6545.000000,
   6550.000000,
   6555.000000,
   6560.000000,
   6565.000000,
   6570.000000,
   6575.000000,
   6580.000000,
   6585.000000,
   6590.000000,
   6595.000000,
   6600.000000,
   6605.000000,
   6610.000000,
   6615.000000,
   6620.000000,
   6625.000000,
   6630.000000,
   6635.000000,
   6640.000000,
   6645.000000,
   6650.000000,
   6655.000000,
   6660.000000,
   6665.000000,
   6670.000000,
   6675.000000,
   6680.000000,
   6685.000000,
   6690.000000,
   6695.000000,
   6700.000000,
   6705.000000,
   6710.000000,
   6715.000000,
   6720.000000,
   6725.000000,
   6730.000000,
   6735.000000,
   6740.000000,
   6745.000000,
   6750.000000,
   6755.000000,
   6760.000000,
   6765.000000,
   6770.000000,
   6775.000000,
   6780.000000,
   6785.000000,
   6790.000000,
   6795.000000,
   6800.000000,
   6805.000000,
   6810.000000,
   6815.000000,
   6820.000000,
   6825.000000,
   6830.000000,
   6835.000000,
   6840.000000,
   6845.000000,
   6850.000000,
   6855.000000,
   6860.000000,
   6865.000000,
   6870.000000,
   6875.000000,
   6880.000000,
   6885.000000,
   6890.000000,
   6895.000000,
   6900.000000,
   6905.000000,
   6910.000000,
   6915.000000,
   6920.000000,
   6925.000000,
   6930.000000,
   6935.000000,
   6940.000000,
   6945.000000,
   6950.000000,
   6955.000000,
   6960.000000,
   6965.000000,
   6970.000000,
   6975.000000,
   6980.000000,
   6985.000000,
   6990.000000,
   6995.000000,
   7000.000000,
   7005.000000,
   7010.000000,
   7015.000000,
   7020.000000,
   7025.000000,
   7030.000000,
   7035.000000,
   7040.000000,
   7045.000000,
   7050.000000,
   7055.000000,
   7060.000000,
   7065.000000,
   7070.000000,
   7075.000000,
   7080.000000,
   7085.000000,
   7090.000000,
   7095.000000,
   7100.000000,
   7105.000000,
   7110.000000,
   7115.000000,
   7120.000000,
   7125.000000,
   7130.000000,
   7135.000000,
   7140.000000,
   7145.000000,
   7150.000000,
   7155.000000,
   7160.000000,
   7165.000000,
   7170.000000,
   7175.000000,
   7180.000000,
   7185.000000,
   7190.000000,
   7195.000000,
   7200.000000,
   7205.000000,
   7210.000000,
   7215.000000,
   7220.000000,
   7225.000000,
   7230.000000,
   7235.000000,
   7240.000000,
   7245.000000,
   7250.000000,
   7255.000000,
   7260.000000,
   7265.000000,
   7270.000000,
   7275.000000,
   7280.000000,
   7285.000000,
   7290.000000,
   7295.000000,
   7300.000000,
   7305.000000,
   7310.000000,
   7315.000000,
   7320.000000,
   7325.000000,
   7330.000000,
   7335.000000,
   7340.000000,
   7345.000000,
   7350.000000,
   7355.000000,
   7360.000000,
   7365.000000,
   7370.000000,
   7375.000000,
   7380.000000,
   7385.000000,
   7390.000000,
   7395.000000,
   7400.000000,
   7405.000000,
   7410.000000,
   7415.000000,
   7420.000000,
   7425.000000,
   7430.000000,
   7435.000000,
   7440.000000,
   7445.000000,
   7450.000000,
   7455.000000,
   7460.000000,
   7465.000000,
   7470.000000,
   7475.000000,
   7480.000000,
   7485.000000,
   7490.000000,
   7495.000000,
   7500.000000,
   7505.000000,
   7510.000000,
   7515.000000,
   7520.000000,
   7525.000000,
   7530.000000,
   7535.000000,
   7540.000000,
   7545.000000,
   7550.000000,
   7555.000000,
   7560.000000,
   7565.000000,
   7570.000000,
   7575.000000,
   7580.000000,
   7585.000000,
   7590.000000,
   7595.000000,
   7600.000000,
   7605.000000,
   7610.000000,
   7615.000000,
   7620.000000,
   7625.000000,
   7630.000000,
   7635.000000,
   7640.000000,
   7645.000000,
   7650.000000,
   7655.000000,
   7660.000000,
   7665.000000,
   7670.000000,
   7675.000000,
   7680.000000,
   7685.000000,
   7690.000000,
   7695.000000,
   7700.000000,
   7705.000000,
   7710.000000,
   7715.000000,
   7720.000000,
   7725.000000,
   7730.000000,
   7735.000000,
   7740.000000,
   7745.000000,
   7750.000000,
   7755.000000,
   7760.000000,
   7765.000000,
   7770.000000,
   7775.000000,
   7780.000000,
   7785.000000,
   7790.000000,
   7795.000000,
   7800.000000,
   7805.000000,
   7810.000000,
   7815.000000,
   7820.000000,
   7825.000000,
   7830.000000,
   7835.000000,
   7840.000000,
   7845.000000,
   7850.000000,
   7855.000000,
   7860.000000,
   7865.000000,
   7870.000000,
   7875.000000,
   7880.000000,
   7885.000000,
   7890.000000,
   7895.000000,
   7900.000000,
   7905.000000,
   7910.000000,
   7915.000000,
   7920.000000,
   7925.000000,
   7930.000000,
   7935.000000,
   7940.000000,
   7945.000000,
   7950.000000,
   7955.000000,
   7960.000000,
   7965.000000,
   7970.000000,
   7975.000000,
   7980.000000,
   7985.000000,
   7990.000000,
   7995.000000,
   8000.000000,
   8005.000000,
   8010.000000,
   8015.000000,
   8020.000000,
   8025.000000,
   8030.000000,
   8035.000000,
   8040.000000,
   8045.000000,
   8050.000000,
   8055.000000,
   8060.000000,
   8065.000000,
   8070.000000,
   8075.000000,
   8080.000000,
   8085.000000,
   8090.000000,
   8095.000000,
   8100.000000,
   8105.000000,
   8110.000000,
   8115.000000,
   8120.000000,
   8125.000000,
   8130.000000,
   8135.000000,
   8140.000000,
   8145.000000,
   8150.000000,
   8155.000000,
   8160.000000,
   8165.000000,
   8170.000000,
   8175.000000,
   8180.000000,
   8185.000000,
   8190.000000,
   8195.000000,
   8200.000000,
   8205.000000,
   8210.000000,
   8215.000000,
   8220.000000,
   8225.000000,
   8230.000000,
   8235.000000,
   8240.000000,
   8245.000000,
   8250.000000,
   8255.000000,
   8260.000000,
   8265.000000,
   8270.000000,
   8275.000000,
   8280.000000,
   8285.000000,
   8290.000000,
   8295.000000,
   8300.000000,
   8305.000000,
   8310.000000,
   8315.000000,
   8320.000000,
   8325.000000,
   8330.000000,
   8335.000000,
   8340.000000,
   8345.000000,
   8350.000000,
   8355.000000,
   8360.000000,
   8365.000000,
   8370.000000,
   8375.000000,
   8380.000000,
   8385.000000,
   8390.000000,
   8395.000000,
   8400.000000,
   8405.000000,
   8410.000000,
   8415.000000,
   8420.000000,
   8425.000000,
   8430.000000,
   8435.000000,
   8440.000000,
   8445.000000,
   8450.000000,
   8455.000000,
   8460.000000,
   8465.000000,
   8470.000000,
   8475.000000,
   8480.000000,
   8485.000000,
   8490.000000,
   8495.000000,
   8500.000000,
   8505.000000,
   8510.000000,
   8515.000000,
   8520.000000,
   8525.000000,
   8530.000000,
   8535.000000,
   8540.000000,
   8545.000000,
   8550.000000,
   8555.000000,
   8560.000000,
   8565.000000,
   8570.000000,
   8575.000000,
   8580.000000,
   8585.000000,
   8590.000000,
   8595.000000,
   8600.000000,
   8605.000000,
   8610.000000,
   8615.000000,
   8620.000000,
   8625.000000,
   8630.000000,
   8635.000000,
   8640.000000,
   8645.000000,
   8650.000000,
   8655.000000,
   8660.000000,
   8665.000000,
   8670.000000,
   8675.000000,
   8680.000000,
   8685.000000,
   8690.000000,
   8695.000000,
   8700.000000,
   8705.000000,
   8710.000000,
   8715.000000,
   8720.000000,
   8725.000000,
   8730.000000,
   8735.000000,
   8740.000000,
   8745.000000,
   8750.000000,
   8755.000000,
   8760.000000,
   8765.000000,
   8770.000000,
   8775.000000,
   8780.000000,
   8785.000000,
   8790.000000,
   8795.000000,
   8800.000000,
   8805.000000,
   8810.000000,
   8815.000000,
   8820.000000,
   8825.000000,
   8830.000000,
   8835.000000,
   8840.000000,
   8845.000000,
   8850.000000,
   8855.000000,
   8860.000000,
   8865.000000,
   8870.000000,
   8875.000000,
   8880.000000,
   8885.000000,
   8890.000000,
   8895.000000,
   8900.000000,
   8905.000000,
   8910.000000,
   8915.000000,
   8920.000000,
   8925.000000,
   8930.000000,
   8935.000000,
   8940.000000,
   8945.000000,
   8950.000000,
   8955.000000,
   8960.000000,
   8965.000000,
   8970.000000,
   8975.000000,
   8980.000000,
   8985.000000,
   8990.000000,
   8995.000000,
   9000.000000,
   9005.000000,
   9010.000000,
   9015.000000,
   9020.000000,
   9025.000000,
   9030.000000,
   9035.000000,
   9040.000000,
   9045.000000,
   9050.000000,
   9055.000000,
   9060.000000,
   9065.000000,
   9070.000000,
   9075.000000,
   9080.000000,
   9085.000000,
   9090.000000,
   9095.000000,
   9100.000000,
   9105.000000,
   9110.000000,
   9115.000000,
   9120.000000,
   9125.000000,
   9130.000000,
   9135.000000,
   9140.000000,
   9145.000000,
   9150.000000,
   9155.000000,
   9160.000000,
   9165.000000,
   9170.000000,
   9175.000000,
   9180.000000,
   9185.000000,
   9190.000000,
   9195.000000,
   9200.000000,
   9205.000000,
   9210.000000,
   9215.000000,
   9220.000000,
   9225.000000,
   9230.000000,
   9235.000000,
   9240.000000,
   9245.000000,
   9250.000000,
   9255.000000,
   9260.000000,
   9265.000000,
   9270.000000,
   9275.000000,
   9280.000000,
   9285.000000,
   9290.000000,
   9295.000000,
   9300.000000,
   9305.000000,
   9310.000000,
   9315.000000,
   9320.000000,
   9325.000000,
   9330.000000,
   9335.000000,
   9340.000000,
   9345.000000,
   9350.000000,
   9355.000000,
   9360.000000,
   9365.000000,
   9370.000000,
   9375.000000,
   9380.000000,
   9385.000000,
   9390.000000,
   9395.000000,
   9400.000000,
   9405.000000,
   9410.000000,
   9415.000000,
   9420.000000,
   9425.000000,
   9430.000000,
   9435.000000,
   9440.000000,
   9445.000000,
   9450.000000,
   9455.000000,
   9460.000000,
   9465.000000,
   9470.000000,
   9475.000000,
   9480.000000,
   9485.000000,
   9490.000000,
   9495.000000,
   9500.000000,
   9505.000000,
   9510.000000,
   9515.000000,
   9520.000000,
   9525.000000,
   9530.000000,
   9535.000000,
   9540.000000,
   9545.000000,
   9550.000000,
   9555.000000,
   9560.000000,
   9565.000000,
   9570.000000,
   9575.000000,
   9580.000000,
   9585.000000,
   9590.000000,
   9595.000000,
   9600.000000,
   9605.000000,
   9610.000000,
   9615.000000,
   9620.000000,
   9625.000000,
   9630.000000,
   9635.000000,
   9640.000000,
   9645.000000,
   9650.000000,
   9655.000000,
   9660.000000,
   9665.000000,
   9670.000000,
   9675.000000,
   9680.000000,
   9685.000000,
   9690.000000,
   9695.000000,
   9700.000000,
   9705.000000,
   9710.000000,
   9715.000000,
   9720.000000,
   9725.000000,
   9730.000000,
   9735.000000,
   9740.000000,
   9745.000000,
   9750.000000,
   9755.000000,
   9760.000000,
   9765.000000,
   9770.000000,
   9775.000000,
   9780.000000,
   9785.000000,
   9790.000000,
   9795.000000,
   9800.000000,
   9805.000000,
   9810.000000,
   9815.000000,
   9820.000000,
   9825.000000,
   9830.000000,
   9835.000000,
   9840.000000,
   9845.000000,
   9850.000000,
   9855.000000,
   9860.000000,
   9865.000000,
   9870.000000,
   9875.000000,
   9880.000000,
   9885.000000,
   9890.000000,
   9895.000000,
   9900.000000,
   9905.000000,
   9910.000000,
   9915.000000,
   9920.000000,
   9925.000000,
   9930.000000,
   9935.000000,
   9940.000000,
   9945.000000,
   9950.000000,
   9955.000000,
   9960.000000,
   9965.000000,
   9970.000000,
   9975.000000,
   9980.000000,
   9985.000000,
   9990.000000,
   9995.000000,
   10000.000000,
   10005.000000,
   10010.000000,
   10015.000000,
   10020.000000,
   10025.000000,
   10030.000000,
   10035.000000,
   10040.000000,
   10045.000000,
   10050.000000,
   10055.000000,
   10060.000000,
   10065.000000,
   10070.000000,
   10075.000000,
   10080.000000,
   10085.000000,
   10090.000000,
   10095.000000,
   10100.000000,
   10105.000000,
   10110.000000,
   10115.000000,
   10120.000000,
   10125.000000,
   10130.000000,
   10135.000000,
   10140.000000,
   10145.000000,
   10150.000000,
   10155.000000,
   10160.000000,
   10165.000000,
   10170.000000,
   10175.000000,
   10180.000000,
   10185.000000,
   10190.000000,
   10195.000000,
   10200.000000,
   10205.000000,
   10210.000000,
   10215.000000,
   10220.000000,
   10225.000000,
   10230.000000,
   10235.000000,
   10240.000000,
   10245.000000,
   10250.000000,
   10255.000000,
   10260.000000,
   10265.000000,
   10270.000000,
   10275.000000,
   10280.000000,
   10285.000000,
   10290.000000,
   10295.000000,
   10300.000000,
   10305.000000,
   10310.000000,
   10315.000000,
   10320.000000,
   10325.000000,
   10330.000000,
   10335.000000,
   10340.000000,
   10345.000000,
   10350.000000,
   10355.000000,
   10360.000000,
   10365.000000,
   10370.000000,
   10375.000000,
   10380.000000,
   10385.000000,
   10390.000000,
   10395.000000,
   10400.000000,
   10405.000000,
   10410.000000,
   10415.000000,
   10420.000000,
   10425.000000,
   10430.000000,
   10435.000000,
   10440.000000,
   10445.000000,
   10450.000000,
   10455.000000,
   10460.000000,
   10465.000000,
   10470.000000,
   10475.000000,
   10480.000000,
   10485.000000,
   10490.000000,
   10495.000000,
   10500.000000,
   10505.000000,
   10510.000000,
   10515.000000,
   10520.000000,
   10525.000000,
   10530.000000,
   10535.000000,
   10540.000000,
   10545.000000,
   10550.000000,
   10555.000000,
   10560.000000,
   10565.000000,
   10570.000000,
   10575.000000,
   10580.000000,
   10585.000000,
   10590.000000,
   10595.000000,
   10600.000000,
   10605.000000,
   10610.000000,
   10615.000000,
   10620.000000
};

static double _f2v_flux[] = {
   0.003094,
   0.010211,
   0.009671,
   0.000000,
   0.000000,
   0.000000,
   0.000000,
   0.000000,
   0.000000,
   0.000000,
   0.000000,
   0.002475,
   0.017038,
   0.026298,
   0.015395,
   0.003658,
   0.000492,
   0.001082,
   0.002116,
   0.002632,
   0.001551,
   0.002105,
   0.002449,
   0.000586,
   0.001623,
   0.001149,
   0.002167,
   0.003181,
   0.000937,
   0.000000,
   0.000706,
   0.002660,
   0.002727,
   0.001336,
   0.000050,
   0.001177,
   0.001650,
   0.002258,
   0.002588,
   0.001218,
   0.000823,
   0.002130,
   0.001934,
   0.000459,
   0.000000,
   0.000463,
   0.000927,
   0.000000,
   0.000000,
   0.000000,
   0.001238,
   0.002569,
   0.000057,
   0.000000,
   0.000429,
   0.001141,
   0.001148,
   0.000343,
   0.000546,
   0.001474,
   0.001069,
   0.001171,
   0.001766,
   0.001335,
   0.003004,
   0.002279,
   0.000751,
   0.000000,
   0.000000,
   0.001564,
   0.000701,
   0.000954,
   0.002042,
   0.001519,
   0.000832,
   0.000000,
   0.000263,
   0.004233,
   0.004982,
   0.003672,
   0.002894,
   0.003792,
   0.003635,
   0.003753,
   0.001384,
   0.002013,
   0.004182,
   0.003630,
   0.001032,
   0.004096,
   0.004591,
   0.001599,
   0.002295,
   0.003077,
   0.004266,
   0.003155,
   0.002029,
   0.003046,
   0.002767,
   0.002551,
   0.002274,
   0.003229,
   0.004288,
   0.005494,
   0.005320,
   0.005339,
   0.005474,
   0.005682,
   0.007519,
   0.007629,
   0.011905,
   0.015778,
   0.020275,
   0.023828,
   0.023967,
   0.026315,
   0.029815,
   0.029073,
   0.032036,
   0.038006,
   0.045994,
   0.053484,
   0.052274,
   0.051415,
   0.062778,
   0.080727,
   0.087520,
   0.076660,
   0.074734,
   0.087311,
   0.097255,
   0.084137,
   0.089269,
   0.097685,
   0.099421,
   0.105752,
   0.105498,
   0.097035,
   0.082042,
   0.065165,
   0.063328,
   0.080081,
   0.091555,
   0.101590,
   0.111582,
   0.114337,
   0.121630,
   0.123559,
   0.116093,
   0.111495,
   0.106014,
   0.110689,
   0.118046,
   0.128333,
   0.132410,
   0.117810,
   0.084719,
   0.085354,
   0.127519,
   0.154941,
   0.155118,
   0.145595,
   0.155159,
   0.132580,
   0.140495,
   0.176797,
   0.160941,
   0.151860,
   0.114535,
   0.090254,
   0.110363,
   0.131991,
   0.124683,
   0.129960,
   0.129935,
   0.128968,
   0.148185,
   0.150818,
   0.149070,
   0.186257,
   0.189074,
   0.193449,
   0.181870,
   0.187709,
   0.182450,
   0.198531,
   0.243818,
   0.247653,
   0.245254,
   0.213783,
   0.195122,
   0.213943,
   0.236388,
   0.220252,
   0.222452,
   0.244858,
   0.233093,
   0.215542,
   0.213273,
   0.220763,
   0.230488,
   0.235620,
   0.226474,
   0.179993,
   0.178264,
   0.180930,
   0.184010,
   0.216821,
   0.235824,
   0.236516,
   0.237566,
   0.253101,
   0.260129,
   0.203319,
   0.180320,
   0.181305,
   0.214018,
   0.241086,
   0.257941,
   0.220160,
   0.226720,
   0.245024,
   0.234339,
   0.206896,
   0.198378,
   0.207244,
   0.218195,
   0.223263,
   0.236899,
   0.247306,
   0.233258,
   0.220080,
   0.231775,
   0.240703,
   0.225562,
   0.205622,
   0.217322,
   0.196059,
   0.176994,
   0.161464,
   0.158867,
   0.164996,
   0.178952,
   0.177232,
   0.173264,
   0.199057,
   0.189952,
   0.143324,
   0.131489,
   0.145359,
   0.151649,
   0.131233,
   0.115082,
   0.114557,
   0.160432,
   0.220772,
   0.237177,
   0.237285,
   0.238119,
   0.241775,
   0.233927,
   0.216777,
   0.210531,
   0.210388,
   0.203724,
   0.209110,
   0.200615,
   0.185373,
   0.168638,
   0.172855,
   0.223582,
   0.227666,
   0.195862,
   0.183461,
   0.154727,
   0.135008,
   0.153573,
   0.163839,
   0.167547,
   0.163373,
   0.175732,
   0.202638,
   0.216477,
   0.234606,
   0.268192,
   0.270687,
   0.225623,
   0.236979,
   0.252238,
   0.263675,
   0.233741,
   0.213762,
   0.213483,
   0.203673,
   0.216838,
   0.239619,
   0.232453,
   0.281282,
   0.360067,
   0.429187,
   0.439861,
   0.434254,
   0.434410,
   0.407157,
   0.386951,
   0.390167,
   0.419595,
   0.422624,
   0.406993,
   0.375993,
   0.384043,
   0.403756,
   0.374446,
   0.346697,
   0.354809,
   0.356758,
   0.378770,
   0.384793,
   0.331237,
   0.267337,
   0.234244,
   0.264907,
   0.293726,
   0.350135,
   0.364589,
   0.372531,
   0.366414,
   0.342135,
   0.298629,
   0.208743,
   0.141461,
   0.136344,
   0.207653,
   0.329397,
   0.413547,
   0.464007,
   0.480840,
   0.472907,
   0.454174,
   0.422909,
   0.394839,
   0.363904,
   0.398623,
   0.447486,
   0.464013,
   0.465402,
   0.483459,
   0.497946,
   0.470566,
   0.506142,
   0.546871,
   0.556314,
   0.567183,
   0.579656,
   0.588109,
   0.525562,
   0.528825,
   0.554065,
   0.550627,
   0.560073,
   0.562113,
   0.580042,
   0.614433,
   0.595007,
   0.588301,
   0.625153,
   0.589977,
   0.557427,
   0.588819,
   0.617521,
   0.568680,
   0.545241,
   0.581215,
   0.579379,
   0.558951,
   0.556285,
   0.578468,
   0.566954,
   0.546543,
   0.558891,
   0.583687,
   0.582061,
   0.573557,
   0.553613,
   0.562566,
   0.583035,
   0.616909,
   0.629935,
   0.599152,
   0.564450,
   0.559546,
   0.565276,
   0.595341,
   0.600672,
   0.593323,
   0.614319,
   0.634404,
   0.625669,
   0.662253,
   0.650251,
   0.640794,
   0.623835,
   0.611370,
   0.623284,
   0.656463,
   0.660666,
   0.633265,
   0.615996,
   0.618285,
   0.607683,
   0.678078,
   0.704074,
   0.693212,
   0.653502,
   0.613135,
   0.598578,
   0.609219,
   0.635274,
   0.657363,
   0.660171,
   0.654245,
   0.655976,
   0.679254,
   0.723622,
   0.733724,
   0.671186,
   0.620475,
   0.660451,
   0.724731,
   0.735660,
   0.715741,
   0.703718,
   0.703130,
   0.708761,
   0.715582,
   0.718130,
   0.709049,
   0.687149,
   0.677814,
   0.701315,
   0.730880,
   0.736053,
   0.718677,
   0.690878,
   0.673602,
   0.681799,
   0.697627,
   0.701880,
   0.702696,
   0.710835,
   0.720195,
   0.722937,
   0.721152,
   0.719446,
   0.722593,
   0.732250,
   0.737467,
   0.727502,
   0.705048,
   0.679004,
   0.669639,
   0.689691,
   0.710387,
   0.704867,
   0.695427,
   0.705196,
   0.711474,
   0.691919,
   0.671454,
   0.676758,
   0.694272,
   0.704190,
   0.711838,
   0.722887,
   0.717628,
   0.713658,
   0.734480,
   0.765058,
   0.785804,
   0.804323,
   0.792068,
   0.769401,
   0.754407,
   0.719547,
   0.683087,
   0.678335,
   0.667291,
   0.660146,
   0.689767,
   0.742341,
   0.756306,
   0.726581,
   0.713688,
   0.695537,
   0.702829,
   0.737284,
   0.737964,
   0.701660,
   0.747273,
   0.742767,
   0.755306,
   0.809332,
   0.841856,
   0.841158,
   0.829348,
   0.809459,
   0.775186,
   0.788631,
   0.816876,
   0.845238,
   0.839938,
   0.791572,
   0.801447,
   0.861047,
   0.830389,
   0.817885,
   0.825903,
   0.756847,
   0.834386,
   0.825813,
   0.752689,
   0.886829,
   0.891894,
   0.887047,
   0.830703,
   0.933852,
   1.088366,
   1.086645,
   0.978492,
   0.834953,
   0.890307,
   1.075802,
   1.168340,
   1.128740,
   1.102675,
   1.001261,
   0.853239,
   0.738586,
   0.897213,
   1.115799,
   1.224161,
   1.231610,
   1.227574,
   1.269870,
   1.209802,
   1.138675,
   1.071422,
   0.879083,
   0.829300,
   1.007895,
   1.114846,
   1.099981,
   1.203904,
   1.245496,
   1.216264,
   1.077406,
   0.831287,
   0.745856,
   0.895192,
   1.019858,
   1.103314,
   1.117577,
   1.034948,
   0.828343,
   0.728746,
   0.852489,
   0.994158,
   1.109747,
   1.238886,
   1.310260,
   1.333269,
   1.334271,
   1.346754,
   1.353157,
   1.348814,
   1.355929,
   1.341446,
   1.349854,
   1.357188,
   1.334691,
   1.340332,
   1.322061,
   1.306691,
   1.299536,
   1.290317,
   1.273396,
   1.269368,
   1.265254,
   1.226815,
   1.110798,
   0.957803,
   0.954021,
   1.052560,
   1.146328,
   1.210643,
   1.264941,
   1.294298,
   1.318541,
   1.328247,
   1.312105,
   1.305081,
   1.291595,
   1.302600,
   1.312204,
   1.289951,
   1.268456,
   1.288493,
   1.302117,
   1.323678,
   1.320206,
   1.294451,
   1.309348,
   1.328184,
   1.329831,
   1.317288,
   1.286586,
   1.299237,
   1.288050,
   1.271069,
   1.270389,
   1.273676,
   1.294380,
   1.295339,
   1.314218,
   1.297126,
   1.293991,
   1.305614,
   1.286716,
   1.260100,
   1.240823,
   1.189349,
   1.172039,
   1.183484,
   1.213722,
   1.227485,
   1.190397,
   1.148458,
   1.038444,
   0.922853,
   0.967328,
   1.061384,
   1.157616,
   1.237909,
   1.284549,
   1.294446,
   1.296695,
   1.295051,
   1.274205,
   1.281766,
   1.271835,
   1.259120,
   1.251388,
   1.262786,
   1.273530,
   1.299964,
   1.314364,
   1.307354,
   1.300089,
   1.306128,
   1.303676,
   1.308393,
   1.292091,
   1.275941,
   1.271996,
   1.290291,
   1.313492,
   1.301397,
   1.298914,
   1.290059,
   1.296340,
   1.319457,
   1.343621,
   1.353991,
   1.339744,
   1.320439,
   1.286121,
   1.244410,
   1.246294,
   1.275151,
   1.278629,
   1.272845,
   1.279967,
   1.293575,
   1.295175,
   1.298767,
   1.300210,
   1.281229,
   1.266213,
   1.268797,
   1.269111,
   1.265560,
   1.271803,
   1.293453,
   1.310982,
   1.315774,
   1.306366,
   1.292453,
   1.287451,
   1.298752,
   1.298559,
   1.302412,
   1.314921,
   1.311499,
   1.283172,
   1.272641,
   1.289414,
   1.303697,
   1.322066,
   1.309950,
   1.290515,
   1.257289,
   1.244567,
   1.253139,
   1.261582,
   1.273361,
   1.263105,
   1.244627,
   1.237656,
   1.242547,
   1.253064,
   1.256310,
   1.251555,
   1.244657,
   1.230141,
   1.234668,
   1.243801,
   1.234151,
   1.235913,
   1.246557,
   1.255271,
   1.241799,
   1.234656,
   1.241235,
   1.247711,
   1.225902,
   1.209685,
   1.204496,
   1.201814,
   1.202461,
   1.185307,
   1.121850,
   1.002016,
   0.873887,
   0.868789,
   0.945912,
   1.014843,
   1.079783,
   1.124448,
   1.139029,
   1.160959,
   1.149004,
   1.145176,
   1.154994,
   1.159603,
   1.150323,
   1.149182,
   1.153069,
   1.142238,
   1.148212,
   1.170001,
   1.178206,
   1.161151,
   1.161861,
   1.169974,
   1.164846,
   1.165440,
   1.149157,
   1.136844,
   1.144173,
   1.148832,
   1.132606,
   1.122283,
   1.116785,
   1.104287,
   1.114047,
   1.125191,
   1.132094,
   1.131916,
   1.124335,
   1.140809,
   1.137591,
   1.134593,
   1.146321,
   1.145086,
   1.140392,
   1.143033,
   1.131383,
   1.134578,
   1.142872,
   1.144333,
   1.126555,
   1.129480,
   1.138391,
   1.155405,
   1.149060,
   1.133029,
   1.132936,
   1.125530,
   1.116128,
   1.114313,
   1.118137,
   1.115068,
   1.107635,
   1.063512,
   1.039366,
   1.068646,
   1.081804,
   1.062194,
   1.067820,
   1.070826,
   1.083931,
   1.084465,
   1.092106,
   1.101314,
   1.112534,
   1.093281,
   1.080458,
   1.081989,
   1.077648,
   1.082506,
   1.086730,
   1.089459,
   1.080625,
   1.047982,
   1.041761,
   1.052042,
   1.066878,
   1.078223,
   1.100760,
   1.097597,
   1.078923,
   1.072263,
   1.075401,
   1.073705,
   1.064040,
   1.049400,
   1.043839,
   1.052293,
   1.045349,
   1.042324,
   1.057557,
   1.080151,
   1.074109,
   1.057835,
   1.050391,
   1.047676,
   1.042047,
   1.048745,
   1.057116,
   1.048202,
   1.036022,
   1.023094,
   1.024489,
   1.034441,
   1.038697,
   1.034285,
   1.029463,
   1.023112,
   1.030807,
   1.026154,
   1.035775,
   1.046365,
   1.050146,
   1.047116,
   1.038110,
   1.021043,
   1.009485,
   1.013841,
   1.021131,
   1.027489,
   1.023750,
   1.020753,
   1.020723,
   1.029812,
   1.027335,
   1.011023,
   1.000302,
   0.998863,
   1.006162,
   1.018329,
   1.028414,
   1.023142,
   1.015705,
   0.997719,
   0.979202,
   0.980951,
   0.984770,
   0.979164,
   0.971901,
   0.966776,
   0.971503,
   0.987106,
   0.999663,
   0.990542,
   0.987869,
   0.984688,
   0.982352,
   0.983951,
   0.978582,
   0.977536,
   0.970061,
   0.964290,
   0.967060,
   0.978000,
   0.989419,
   0.991581,
   0.974193,
   0.948656,
   0.945296,
   0.950910,
   0.953412,
   0.941998,
   0.933814,
   0.941406,
   0.949336,
   0.953760,
   0.956137,
   0.966656,
   0.964694,
   0.960390,
   0.945767,
   0.935603,
   0.938845,
   0.938488,
   0.936656,
   0.934495,
   0.930621,
   0.934694,
   0.936352,
   0.939696,
   0.941627,
   0.938326,
   0.937745,
   0.941696,
   0.945469,
   0.950099,
   0.952925,
   0.953909,
   0.947552,
   0.943550,
   0.930760,
   0.915444,
   0.917429,
   0.937182,
   0.939186,
   0.921556,
   0.904721,
   0.875197,
   0.842087,
   0.834378,
   0.866312,
   0.896490,
   0.904608,
   0.900151,
   0.892498,
   0.884677,
   0.873578,
   0.875367,
   0.870330,
   0.863186,
   0.858099,
   0.858039,
   0.863758,
   0.871786,
   0.876477,
   0.874432,
   0.867201,
   0.860113,
   0.858296,
   0.861315,
   0.862200,
   0.869883,
   0.871114,
   0.863016,
   0.856993,
   0.855495,
   0.867056,
   0.876747,
   0.867523,
   0.868598,
   0.869497,
   0.863500,
   0.859777,
   0.862763,
   0.868790,
   0.862600,
   0.864590,
   0.860542,
   0.863620,
   0.860071,
   0.857770,
   0.853874,
   0.855669,
   0.852826,
   0.849763,
   0.846109,
   0.846893,
   0.839305,
   0.831442,
   0.832025,
   0.836287,
   0.834851,
   0.828772,
   0.824377,
   0.826188,
   0.830251,
   0.836851,
   0.837622,
   0.834989,
   0.835890,
   0.832599,
   0.839963,
   0.830151,
   0.826034,
   0.829738,
   0.831531,
   0.821837,
   0.813341,
   0.813880,
   0.804816,
   0.807781,
   0.810329,
   0.818377,
   0.822295,
   0.815940,
   0.804471,
   0.788105,
   0.802986,
   0.803153,
   0.800114,
   0.796413,
   0.802825,
   0.801742,
   0.794850,
   0.793775,
   0.800078,
   0.799563,
   0.793947,
   0.792645,
   0.785049,
   0.793989,
   0.799327,
   0.793017,
   0.793770,
   0.794129,
   0.801633,
   0.796058,
   0.793969,
   0.790693,
   0.786653,
   0.784281,
   0.778906,
   0.772036,
   0.770822,
   0.777749,
   0.786534,
   0.779974,
   0.780271,
   0.779565,
   0.776259,
   0.765865,
   0.759401,
   0.757524,
   0.765554,
   0.764476,
   0.763911,
   0.759977,
   0.753567,
   0.740858,
   0.733556,
   0.758190,
   0.765982,
   0.765665,
   0.756466,
   0.757874,
   0.753427,
   0.746952,
   0.747456,
   0.743027,
   0.729130,
   0.698098,
   0.642746,
   0.552381,
   0.551421,
   0.634983,
   0.676419,
   0.709255,
   0.724511,
   0.729040,
   0.731025,
   0.736911,
   0.740451,
   0.742930,
   0.749936,
   0.749758,
   0.743190,
   0.734542,
   0.731875,
   0.734586,
   0.736759,
   0.739001,
   0.736660,
   0.732017,
   0.727000,
   0.725390,
   0.720568,
   0.719862,
   0.725573,
   0.727460,
   0.728852,
   0.726956,
   0.722736,
   0.718687,
   0.710680,
   0.707406,
   0.708309,
   0.712212,
   0.711239,
   0.710439,
   0.709754,
   0.706406,
   0.701895,
   0.701477,
   0.701526,
   0.705360,
   0.707998,
   0.706207,
   0.705898,
   0.707770,
   0.707034,
   0.700347,
   0.695976,
   0.697944,
   0.696885,
   0.693643,
   0.692933,
   0.694520,
   0.693923,
   0.690230,
   0.689605,
   0.689257,
   0.689595,
   0.689478,
   0.686487,
   0.679655,
   0.670784,
   0.663721,
   0.661927,
   0.665789,
   0.672178,
   0.676249,
   0.675293,
   0.670484,
   0.665582,
   0.663518,
   0.664294,
   0.665441,
   0.664365,
   0.661063,
   0.657856,
   0.657253,
   0.660453,
   0.665309,
   0.668326,
   0.667750,
   0.671768,
   0.666580,
   0.665656,
   0.660342,
   0.663274,
   0.660085,
   0.653389,
   0.655957,
   0.653516,
   0.648122,
   0.648421,
   0.654337,
   0.655137,
   0.659569,
   0.660280,
   0.657335,
   0.657560,
   0.657408,
   0.649286,
   0.646103,
   0.651493,
   0.650508,
   0.649409,
   0.647697,
   0.647688,
   0.648959,
   0.646327,
   0.640727,
   0.639837,
   0.642418,
   0.643925,
   0.646837,
   0.649103,
   0.645216,
   0.641600,
   0.640904,
   0.647065,
   0.644523,
   0.636439,
   0.632947,
   0.626024,
   0.618331,
   0.602686,
   0.609308,
   0.612795,
   0.608113,
   0.609342,
   0.624524,
   0.633777,
   0.632901,
   0.629977,
   0.620501,
   0.616294,
   0.616829,
   0.618850,
   0.613445,
   0.611623,
   0.612995,
   0.610883,
   0.614692,
   0.608429,
   0.607138,
   0.607098,
   0.600949,
   0.611112,
   0.612629,
   0.603853,
   0.600551,
   0.603937,
   0.606870,
   0.605482,
   0.602596,
   0.606638,
   0.612412,
   0.608683,
   0.601948,
   0.598232,
   0.592906,
   0.591944,
   0.592089,
   0.597765,
   0.598702,
   0.587722,
   0.588157,
   0.593234,
   0.596179,
   0.595545,
   0.586975,
   0.586731,
   0.590007,
   0.581549,
   0.586309,
   0.586111,
   0.584981,
   0.582762,
   0.582855,
   0.584064,
   0.579934,
   0.581065,
   0.582301,
   0.580997,
   0.580712,
   0.579748,
   0.577810,
   0.574241,
   0.579845,
   0.576447,
   0.570977,
   0.574625,
   0.575347,
   0.573702,
   0.572231,
   0.574308,
   0.577021,
   0.574679,
   0.572643,
   0.571883,
   0.570841,
   0.569962,
   0.568958,
   0.567803,
   0.566834,
   0.565898,
   0.564937,
   0.563951,
   0.563099,
   0.562367,
   0.561571,
   0.560740,
   0.559915,
   0.559092,
   0.558270,
   0.557450,
   0.556628,
   0.555805,
   0.554977,
   0.554145,
   0.553306,
   0.552463,
   0.551601,
   0.550588,
   0.549789,
   0.549182,
   0.548508,
   0.547536,
   0.546510,
   0.545589,
   0.545328,
   0.545390,
   0.544938,
   0.544025,
   0.543474,
   0.546587,
   0.538961,
   0.534021,
   0.535346,
   0.541767,
   0.541019,
   0.536923,
   0.518496,
   0.512552,
   0.524935,
   0.533784,
   0.534299,
   0.529780,
   0.526906,
   0.533539,
   0.528963,
   0.531318,
   0.532529,
   0.530387,
   0.524616,
   0.520456,
   0.524069,
   0.521029,
   0.519841,
   0.520499,
   0.523016,
   0.521392,
   0.521953,
   0.517238,
   0.517025,
   0.521141,
   0.519988,
   0.513644,
   0.515215,
   0.516897,
   0.518741,
   0.513593,
   0.509040,
   0.512299,
   0.505819,
   0.504742,
   0.504804,
   0.502543,
   0.507102,
   0.514558,
   0.511354,
   0.508705,
   0.509284,
   0.510769,
   0.510036,
   0.507994,
   0.505222,
   0.503177,
   0.501022,
   0.503937,
   0.501314,
   0.500694,
   0.499545,
   0.498324,
   0.500088,
   0.502836,
   0.499032,
   0.494141,
   0.495321,
   0.496424,
   0.497928,
   0.494065,
   0.496676,
   0.495046,
   0.492845,
   0.490784,
   0.491549,
   0.490810,
   0.492554,
   0.495402,
   0.493396,
   0.491131,
   0.494246,
   0.494330,
   0.491536,
   0.488237,
   0.487767,
   0.483863,
   0.481274,
   0.478118,
   0.471929,
   0.469699,
   0.476345,
   0.475621,
   0.470068,
   0.472793,
   0.471948,
   0.465260,
   0.473361,
   0.487916,
   0.483174,
   0.478406,
   0.473374,
   0.459659,
   0.449968,
   0.469076,
   0.478232,
   0.477619,
   0.480654,
   0.473056,
   0.476115,
   0.478307,
   0.478971,
   0.469821,
   0.469404,
   0.467139,
   0.467700,
   0.465918,
   0.467235,
   0.464481,
   0.468498,
   0.465675,
   0.462455,
   0.461498,
   0.456894,
   0.453935,
   0.458167,
   0.462731,
   0.464796,
   0.466606,
   0.463583,
   0.463277,
   0.463948,
   0.463876,
   0.463140,
   0.459311,
   0.457391,
   0.460430,
   0.460937,
   0.458636,
   0.457494,
   0.456189,
   0.458917,
   0.459237,
   0.454593,
   0.451658,
   0.448943,
   0.446036,
   0.450294,
   0.455600,
   0.456190,
   0.447229,
   0.444219,
   0.450445,
   0.452648,
   0.454202,
   0.448891,
   0.424734,
   0.417297,
   0.433605,
   0.443971,
   0.440498,
   0.443437,
   0.440152,
   0.434389,
   0.413335,
   0.368698,
   0.378948,
   0.420990,
   0.431159,
   0.438575,
   0.441170,
   0.439904,
   0.438371,
   0.435491,
   0.433527,
   0.426334,
   0.420931,
   0.420222,
   0.425784,
   0.428614,
   0.433395,
   0.434844,
   0.439474,
   0.437234,
   0.436694,
   0.435255,
   0.431055,
   0.421854,
   0.404819,
   0.368057,
   0.370098,
   0.400772,
   0.412982,
   0.422863,
   0.426260,
   0.430073,
   0.435290,
   0.438425,
   0.438336,
   0.440363,
   0.439610,
   0.440380,
   0.432261,
   0.428338,
   0.423083,
   0.412493,
   0.406937,
   0.398480,
   0.405625,
   0.415883,
   0.422526,
   0.424880,
   0.429102,
   0.433114,
   0.431359,
   0.428207,
   0.427058,
   0.431584,
   0.423809,
   0.423553,
   0.421386,
   0.420963,
   0.421899,
   0.422885,
   0.417271,
   0.413506,
   0.415222,
   0.405361,
   0.391876,
   0.378043,
   0.376281,
   0.389120,
   0.401850,
   0.404588,
   0.409819,
   0.412434,
   0.419162,
   0.418108,
   0.418245,
   0.412932,
   0.416005,
   0.414164,
   0.405989,
   0.408473,
   0.416186,
   0.416018,
   0.415412,
   0.414757,
   0.417934,
   0.414824,
   0.410412,
   0.407018,
   0.409277,
   0.404235,
   0.391316,
   0.380066,
   0.389253,
   0.379227,
   0.372037,
   0.358315,
   0.347732,
   0.364542,
   0.384510,
   0.403064,
   0.412191,
   0.418924,
   0.417937,
   0.419330,
   0.412057,
   0.400337,
   0.397005,
   0.394728,
   0.391741,
   0.386409,
   0.383957,
   0.376106,
   0.381321,
   0.387870,
   0.390267,
   0.392757,
   0.394992,
   0.396766,
   0.400090,
   0.391978,
   0.384519,
   0.396323,
   0.398202,
   0.386865,
   0.379083,
   0.387948,
   0.392268,
   0.390961,
   0.382479,
   0.391294,
   0.395338,
   0.393967,
   0.392908,
   0.396451,
   0.389255,
   0.375294,
   0.364729,
   0.361871,
   0.342682,
   0.334892,
   0.350603,
   0.368390,
   0.374755,
   0.385636,
   0.383601,
   0.386712,
   0.394979,
   0.405187,
   0.398246,
   0.389316,
   0.407056,
   0.401661,
   0.391954,
   0.384038,
   0.380871,
   0.372183,
   0.349293,
   0.347448,
   0.337603,
   0.345991,
   0.331160,
   0.314549,
   0.319349,
   0.348359,
   0.332553,
   0.349481,
   0.348918,
   0.341617,
   0.352403,
   0.355927,
   0.374733,
   0.404154,
   0.416082,
   0.402470,
   0.388779,
   0.382935,
   0.377662,
   0.372489,
   0.356209,
   0.359063,
   0.358652,
   0.308398,
   0.346446,
   0.363007,
   0.348017,
   0.329027,
   0.355387,
   0.375018,
   0.372540,
   0.339133,
   0.374387,
   0.369528,
   0.346998,
   0.338555,
   0.364249,
   0.372561,
   0.361162,
   0.351015,
   0.338144,
   0.353743,
   0.345737,
   0.323150,
   0.298725,
   0.308796,
   0.295943,
   0.340930,
   0.334913,
   0.346654,
   0.361327,
   0.353859,
   0.343345,
   0.340448,
   0.350869,
   0.363476,
   0.347352,
   0.348994,
   0.350424,
   0.331108,
   0.334119,
   0.337558,
   0.339532,
   0.337568,
   0.340642,
   0.343832,
   0.336812,
   0.329299,
   0.338525,
   0.345010,
   0.328257,
   0.329152,
   0.335430,
   0.339680,
   0.338668,
   0.333941,
   0.344814,
   0.346006,
   0.336064,
   0.336941,
   0.332250,
   0.329719,
   0.331656,
   0.317630,
   0.319889,
   0.317370,
   0.327269,
   0.324545,
   0.324518,
   0.332811,
   0.344917,
   0.337660,
   0.325833,
   0.329728,
   0.330017,
   0.332721,
   0.333857,
   0.336137,
   0.337855,
   0.337307,
   0.333384,
   0.327374,
   0.321162,
   0.316634,
   0.315173,
   0.316154,
   0.318450,
   0.320932,
   0.322694,
   0.323708,
   0.324167,
   0.324266,
   0.324157,
   0.323832,
   0.323243,
   0.322342,
   0.321138,
   0.319865,
   0.318817,
   0.318287,
   0.318446,
   0.318981,
   0.319460,
   0.319448,
   0.318687,
   0.317611,
   0.316830,
   0.316951,
   0.318353,
   0.320490,
   0.322582,
   0.323854,
   0.323793,
   0.322958,
   0.322171,
   0.322258,
   0.323618,
   0.324955,
   0.324547,
   0.320673,
   0.312347,
   0.301518,
   0.290872,
   0.283091,
   0.280167,
   0.281322,
   0.285083,
   0.289979,
   0.294754,
   0.299015,
   0.302588,
   0.305296,
   0.307030,
   0.307947,
   0.308271,
   0.308225,
   0.307982,
   0.307509,
   0.306722,
   0.305536,
   0.303976,
   0.302492,
   0.301642,
   0.301987,
   0.303810,
   0.306304,
   0.308386,
   0.308976,
   0.307443,
   0.304965,
   0.303171,
   0.303691,
   0.307485,
   0.312842,
   0.317383,
   0.318727,
   0.315274,
   0.308538,
   0.300813,
   0.294391,
   0.291002,
   0.290120,
   0.290655,
   0.291517,
   0.291821,
   0.291499,
   0.290687,
   0.289523,
   0.288174,
   0.286937,
   0.286142,
   0.286115,
   0.287060,
   0.288665,
   0.290494,
   0.292109,
   0.293157,
   0.293610,
   0.293525,
   0.292959,
   0.292026,
   0.291070,
   0.290493,
   0.290699,
   0.291930,
   0.293789,
   0.295718,
   0.297162,
   0.297634,
   0.296938,
   0.294948,
   0.291541,
   0.286798,
   0.281634,
   0.277172,
   0.274534,
   0.274476,
   0.276292,
   0.278909,
   0.281255,
   0.282424,
   0.282177,
   0.280438,
   0.277136,
   0.272439,
   0.267484,
   0.263654,
   0.262329,
   0.264382,
   0.268657,
   0.273491,
   0.277220,
   0.278620,
   0.278219,
   0.276987,
   0.275892,
   0.275634,
   0.275844,
   0.275884,
   0.275116,
   0.273119,
   0.270333,
   0.267411,
   0.265010,
   0.263686,
   0.263602,
   0.264823,
   0.267413,
   0.271202,
   0.275074,
   0.277677,
   0.277660,
   0.274218,
   0.268726,
   0.263106,
   0.259282,
   0.258699,
   0.260904,
   0.264967,
   0.269960
};

#endif
