#ifndef _F5I_H_
#define _F5I_H_

/* spectrum for f5i star           */
/* number of elements = 1895       */

static double _f5i_lambda[] = {
   1150.000000,
   1155.000000,
   1160.000000,
   1165.000000,
   1170.000000,
   1175.000000,
   1180.000000,
   1185.000000,
   1190.000000,
   1195.000000,
   1200.000000,
   1205.000000,
   1210.000000,
   1215.000000,
   1220.000000,
   1225.000000,
   1230.000000,
   1235.000000,
   1240.000000,
   1245.000000,
   1250.000000,
   1255.000000,
   1260.000000,
   1265.000000,
   1270.000000,
   1275.000000,
   1280.000000,
   1285.000000,
   1290.000000,
   1295.000000,
   1300.000000,
   1305.000000,
   1310.000000,
   1315.000000,
   1320.000000,
   1325.000000,
   1330.000000,
   1335.000000,
   1340.000000,
   1345.000000,
   1350.000000,
   1355.000000,
   1360.000000,
   1365.000000,
   1370.000000,
   1375.000000,
   1380.000000,
   1385.000000,
   1390.000000,
   1395.000000,
   1400.000000,
   1405.000000,
   1410.000000,
   1415.000000,
   1420.000000,
   1425.000000,
   1430.000000,
   1435.000000,
   1440.000000,
   1445.000000,
   1450.000000,
   1455.000000,
   1460.000000,
   1465.000000,
   1470.000000,
   1475.000000,
   1480.000000,
   1485.000000,
   1490.000000,
   1495.000000,
   1500.000000,
   1505.000000,
   1510.000000,
   1515.000000,
   1520.000000,
   1525.000000,
   1530.000000,
   1535.000000,
   1540.000000,
   1545.000000,
   1550.000000,
   1555.000000,
   1560.000000,
   1565.000000,
   1570.000000,
   1575.000000,
   1580.000000,
   1585.000000,
   1590.000000,
   1595.000000,
   1600.000000,
   1605.000000,
   1610.000000,
   1615.000000,
   1620.000000,
   1625.000000,
   1630.000000,
   1635.000000,
   1640.000000,
   1645.000000,
   1650.000000,
   1655.000000,
   1660.000000,
   1665.000000,
   1670.000000,
   1675.000000,
   1680.000000,
   1685.000000,
   1690.000000,
   1695.000000,
   1700.000000,
   1705.000000,
   1710.000000,
   1715.000000,
   1720.000000,
   1725.000000,
   1730.000000,
   1735.000000,
   1740.000000,
   1745.000000,
   1750.000000,
   1755.000000,
   1760.000000,
   1765.000000,
   1770.000000,
   1775.000000,
   1780.000000,
   1785.000000,
   1790.000000,
   1795.000000,
   1800.000000,
   1805.000000,
   1810.000000,
   1815.000000,
   1820.000000,
   1825.000000,
   1830.000000,
   1835.000000,
   1840.000000,
   1845.000000,
   1850.000000,
   1855.000000,
   1860.000000,
   1865.000000,
   1870.000000,
   1875.000000,
   1880.000000,
   1885.000000,
   1890.000000,
   1895.000000,
   1900.000000,
   1905.000000,
   1910.000000,
   1915.000000,
   1920.000000,
   1925.000000,
   1930.000000,
   1935.000000,
   1940.000000,
   1945.000000,
   1950.000000,
   1955.000000,
   1960.000000,
   1965.000000,
   1970.000000,
   1975.000000,
   1980.000000,
   1985.000000,
   1990.000000,
   1995.000000,
   2000.000000,
   2005.000000,
   2010.000000,
   2015.000000,
   2020.000000,
   2025.000000,
   2030.000000,
   2035.000000,
   2040.000000,
   2045.000000,
   2050.000000,
   2055.000000,
   2060.000000,
   2065.000000,
   2070.000000,
   2075.000000,
   2080.000000,
   2085.000000,
   2090.000000,
   2095.000000,
   2100.000000,
   2105.000000,
   2110.000000,
   2115.000000,
   2120.000000,
   2125.000000,
   2130.000000,
   2135.000000,
   2140.000000,
   2145.000000,
   2150.000000,
   2155.000000,
   2160.000000,
   2165.000000,
   2170.000000,
   2175.000000,
   2180.000000,
   2185.000000,
   2190.000000,
   2195.000000,
   2200.000000,
   2205.000000,
   2210.000000,
   2215.000000,
   2220.000000,
   2225.000000,
   2230.000000,
   2235.000000,
   2240.000000,
   2245.000000,
   2250.000000,
   2255.000000,
   2260.000000,
   2265.000000,
   2270.000000,
   2275.000000,
   2280.000000,
   2285.000000,
   2290.000000,
   2295.000000,
   2300.000000,
   2305.000000,
   2310.000000,
   2315.000000,
   2320.000000,
   2325.000000,
   2330.000000,
   2335.000000,
   2340.000000,
   2345.000000,
   2350.000000,
   2355.000000,
   2360.000000,
   2365.000000,
   2370.000000,
   2375.000000,
   2380.000000,
   2385.000000,
   2390.000000,
   2395.000000,
   2400.000000,
   2405.000000,
   2410.000000,
   2415.000000,
   2420.000000,
   2425.000000,
   2430.000000,
   2435.000000,
   2440.000000,
   2445.000000,
   2450.000000,
   2455.000000,
   2460.000000,
   2465.000000,
   2470.000000,
   2475.000000,
   2480.000000,
   2485.000000,
   2490.000000,
   2495.000000,
   2500.000000,
   2505.000000,
   2510.000000,
   2515.000000,
   2520.000000,
   2525.000000,
   2530.000000,
   2535.000000,
   2540.000000,
   2545.000000,
   2550.000000,
   2555.000000,
   2560.000000,
   2565.000000,
   2570.000000,
   2575.000000,
   2580.000000,
   2585.000000,
   2590.000000,
   2595.000000,
   2600.000000,
   2605.000000,
   2610.000000,
   2615.000000,
   2620.000000,
   2625.000000,
   2630.000000,
   2635.000000,
   2640.000000,
   2645.000000,
   2650.000000,
   2655.000000,
   2660.000000,
   2665.000000,
   2670.000000,
   2675.000000,
   2680.000000,
   2685.000000,
   2690.000000,
   2695.000000,
   2700.000000,
   2705.000000,
   2710.000000,
   2715.000000,
   2720.000000,
   2725.000000,
   2730.000000,
   2735.000000,
   2740.000000,
   2745.000000,
   2750.000000,
   2755.000000,
   2760.000000,
   2765.000000,
   2770.000000,
   2775.000000,
   2780.000000,
   2785.000000,
   2790.000000,
   2795.000000,
   2800.000000,
   2805.000000,
   2810.000000,
   2815.000000,
   2820.000000,
   2825.000000,
   2830.000000,
   2835.000000,
   2840.000000,
   2845.000000,
   2850.000000,
   2855.000000,
   2860.000000,
   2865.000000,
   2870.000000,
   2875.000000,
   2880.000000,
   2885.000000,
   2890.000000,
   2895.000000,
   2900.000000,
   2905.000000,
   2910.000000,
   2915.000000,
   2920.000000,
   2925.000000,
   2930.000000,
   2935.000000,
   2940.000000,
   2945.000000,
   2950.000000,
   2955.000000,
   2960.000000,
   2965.000000,
   2970.000000,
   2975.000000,
   2980.000000,
   2985.000000,
   2990.000000,
   2995.000000,
   3000.000000,
   3005.000000,
   3010.000000,
   3015.000000,
   3020.000000,
   3025.000000,
   3030.000000,
   3035.000000,
   3040.000000,
   3045.000000,
   3050.000000,
   3055.000000,
   3060.000000,
   3065.000000,
   3070.000000,
   3075.000000,
   3080.000000,
   3085.000000,
   3090.000000,
   3095.000000,
   3100.000000,
   3105.000000,
   3110.000000,
   3115.000000,
   3120.000000,
   3125.000000,
   3130.000000,
   3135.000000,
   3140.000000,
   3145.000000,
   3150.000000,
   3155.000000,
   3160.000000,
   3165.000000,
   3170.000000,
   3175.000000,
   3180.000000,
   3185.000000,
   3190.000000,
   3195.000000,
   3200.000000,
   3205.000000,
   3210.000000,
   3215.000000,
   3220.000000,
   3225.000000,
   3230.000000,
   3235.000000,
   3240.000000,
   3245.000000,
   3250.000000,
   3255.000000,
   3260.000000,
   3265.000000,
   3270.000000,
   3275.000000,
   3280.000000,
   3285.000000,
   3290.000000,
   3295.000000,
   3300.000000,
   3305.000000,
   3310.000000,
   3315.000000,
   3320.000000,
   3325.000000,
   3330.000000,
   3335.000000,
   3340.000000,
   3345.000000,
   3350.000000,
   3355.000000,
   3360.000000,
   3365.000000,
   3370.000000,
   3375.000000,
   3380.000000,
   3385.000000,
   3390.000000,
   3395.000000,
   3400.000000,
   3405.000000,
   3410.000000,
   3415.000000,
   3420.000000,
   3425.000000,
   3430.000000,
   3435.000000,
   3440.000000,
   3445.000000,
   3450.000000,
   3455.000000,
   3460.000000,
   3465.000000,
   3470.000000,
   3475.000000,
   3480.000000,
   3485.000000,
   3490.000000,
   3495.000000,
   3500.000000,
   3505.000000,
   3510.000000,
   3515.000000,
   3520.000000,
   3525.000000,
   3530.000000,
   3535.000000,
   3540.000000,
   3545.000000,
   3550.000000,
   3555.000000,
   3560.000000,
   3565.000000,
   3570.000000,
   3575.000000,
   3580.000000,
   3585.000000,
   3590.000000,
   3595.000000,
   3600.000000,
   3605.000000,
   3610.000000,
   3615.000000,
   3620.000000,
   3625.000000,
   3630.000000,
   3635.000000,
   3640.000000,
   3645.000000,
   3650.000000,
   3655.000000,
   3660.000000,
   3665.000000,
   3670.000000,
   3675.000000,
   3680.000000,
   3685.000000,
   3690.000000,
   3695.000000,
   3700.000000,
   3705.000000,
   3710.000000,
   3715.000000,
   3720.000000,
   3725.000000,
   3730.000000,
   3735.000000,
   3740.000000,
   3745.000000,
   3750.000000,
   3755.000000,
   3760.000000,
   3765.000000,
   3770.000000,
   3775.000000,
   3780.000000,
   3785.000000,
   3790.000000,
   3795.000000,
   3800.000000,
   3805.000000,
   3810.000000,
   3815.000000,
   3820.000000,
   3825.000000,
   3830.000000,
   3835.000000,
   3840.000000,
   3845.000000,
   3850.000000,
   3855.000000,
   3860.000000,
   3865.000000,
   3870.000000,
   3875.000000,
   3880.000000,
   3885.000000,
   3890.000000,
   3895.000000,
   3900.000000,
   3905.000000,
   3910.000000,
   3915.000000,
   3920.000000,
   3925.000000,
   3930.000000,
   3935.000000,
   3940.000000,
   3945.000000,
   3950.000000,
   3955.000000,
   3960.000000,
   3965.000000,
   3970.000000,
   3975.000000,
   3980.000000,
   3985.000000,
   3990.000000,
   3995.000000,
   4000.000000,
   4005.000000,
   4010.000000,
   4015.000000,
   4020.000000,
   4025.000000,
   4030.000000,
   4035.000000,
   4040.000000,
   4045.000000,
   4050.000000,
   4055.000000,
   4060.000000,
   4065.000000,
   4070.000000,
   4075.000000,
   4080.000000,
   4085.000000,
   4090.000000,
   4095.000000,
   4100.000000,
   4105.000000,
   4110.000000,
   4115.000000,
   4120.000000,
   4125.000000,
   4130.000000,
   4135.000000,
   4140.000000,
   4145.000000,
   4150.000000,
   4155.000000,
   4160.000000,
   4165.000000,
   4170.000000,
   4175.000000,
   4180.000000,
   4185.000000,
   4190.000000,
   4195.000000,
   4200.000000,
   4205.000000,
   4210.000000,
   4215.000000,
   4220.000000,
   4225.000000,
   4230.000000,
   4235.000000,
   4240.000000,
   4245.000000,
   4250.000000,
   4255.000000,
   4260.000000,
   4265.000000,
   4270.000000,
   4275.000000,
   4280.000000,
   4285.000000,
   4290.000000,
   4295.000000,
   4300.000000,
   4305.000000,
   4310.000000,
   4315.000000,
   4320.000000,
   4325.000000,
   4330.000000,
   4335.000000,
   4340.000000,
   4345.000000,
   4350.000000,
   4355.000000,
   4360.000000,
   4365.000000,
   4370.000000,
   4375.000000,
   4380.000000,
   4385.000000,
   4390.000000,
   4395.000000,
   4400.000000,
   4405.000000,
   4410.000000,
   4415.000000,
   4420.000000,
   4425.000000,
   4430.000000,
   4435.000000,
   4440.000000,
   4445.000000,
   4450.000000,
   4455.000000,
   4460.000000,
   4465.000000,
   4470.000000,
   4475.000000,
   4480.000000,
   4485.000000,
   4490.000000,
   4495.000000,
   4500.000000,
   4505.000000,
   4510.000000,
   4515.000000,
   4520.000000,
   4525.000000,
   4530.000000,
   4535.000000,
   4540.000000,
   4545.000000,
   4550.000000,
   4555.000000,
   4560.000000,
   4565.000000,
   4570.000000,
   4575.000000,
   4580.000000,
   4585.000000,
   4590.000000,
   4595.000000,
   4600.000000,
   4605.000000,
   4610.000000,
   4615.000000,
   4620.000000,
   4625.000000,
   4630.000000,
   4635.000000,
   4640.000000,
   4645.000000,
   4650.000000,
   4655.000000,
   4660.000000,
   4665.000000,
   4670.000000,
   4675.000000,
   4680.000000,
   4685.000000,
   4690.000000,
   4695.000000,
   4700.000000,
   4705.000000,
   4710.000000,
   4715.000000,
   4720.000000,
   4725.000000,
   4730.000000,
   4735.000000,
   4740.000000,
   4745.000000,
   4750.000000,
   4755.000000,
   4760.000000,
   4765.000000,
   4770.000000,
   4775.000000,
   4780.000000,
   4785.000000,
   4790.000000,
   4795.000000,
   4800.000000,
   4805.000000,
   4810.000000,
   4815.000000,
   4820.000000,
   4825.000000,
   4830.000000,
   4835.000000,
   4840.000000,
   4845.000000,
   4850.000000,
   4855.000000,
   4860.000000,
   4865.000000,
   4870.000000,
   4875.000000,
   4880.000000,
   4885.000000,
   4890.000000,
   4895.000000,
   4900.000000,
   4905.000000,
   4910.000000,
   4915.000000,
   4920.000000,
   4925.000000,
   4930.000000,
   4935.000000,
   4940.000000,
   4945.000000,
   4950.000000,
   4955.000000,
   4960.000000,
   4965.000000,
   4970.000000,
   4975.000000,
   4980.000000,
   4985.000000,
   4990.000000,
   4995.000000,
   5000.000000,
   5005.000000,
   5010.000000,
   5015.000000,
   5020.000000,
   5025.000000,
   5030.000000,
   5035.000000,
   5040.000000,
   5045.000000,
   5050.000000,
   5055.000000,
   5060.000000,
   5065.000000,
   5070.000000,
   5075.000000,
   5080.000000,
   5085.000000,
   5090.000000,
   5095.000000,
   5100.000000,
   5105.000000,
   5110.000000,
   5115.000000,
   5120.000000,
   5125.000000,
   5130.000000,
   5135.000000,
   5140.000000,
   5145.000000,
   5150.000000,
   5155.000000,
   5160.000000,
   5165.000000,
   5170.000000,
   5175.000000,
   5180.000000,
   5185.000000,
   5190.000000,
   5195.000000,
   5200.000000,
   5205.000000,
   5210.000000,
   5215.000000,
   5220.000000,
   5225.000000,
   5230.000000,
   5235.000000,
   5240.000000,
   5245.000000,
   5250.000000,
   5255.000000,
   5260.000000,
   5265.000000,
   5270.000000,
   5275.000000,
   5280.000000,
   5285.000000,
   5290.000000,
   5295.000000,
   5300.000000,
   5305.000000,
   5310.000000,
   5315.000000,
   5320.000000,
   5325.000000,
   5330.000000,
   5335.000000,
   5340.000000,
   5345.000000,
   5350.000000,
   5355.000000,
   5360.000000,
   5365.000000,
   5370.000000,
   5375.000000,
   5380.000000,
   5385.000000,
   5390.000000,
   5395.000000,
   5400.000000,
   5405.000000,
   5410.000000,
   5415.000000,
   5420.000000,
   5425.000000,
   5430.000000,
   5435.000000,
   5440.000000,
   5445.000000,
   5450.000000,
   5455.000000,
   5460.000000,
   5465.000000,
   5470.000000,
   5475.000000,
   5480.000000,
   5485.000000,
   5490.000000,
   5495.000000,
   5500.000000,
   5505.000000,
   5510.000000,
   5515.000000,
   5520.000000,
   5525.000000,
   5530.000000,
   5535.000000,
   5540.000000,
   5545.000000,
   5550.000000,
   5555.000000,
   5560.000000,
   5565.000000,
   5570.000000,
   5575.000000,
   5580.000000,
   5585.000000,
   5590.000000,
   5595.000000,
   5600.000000,
   5605.000000,
   5610.000000,
   5615.000000,
   5620.000000,
   5625.000000,
   5630.000000,
   5635.000000,
   5640.000000,
   5645.000000,
   5650.000000,
   5655.000000,
   5660.000000,
   5665.000000,
   5670.000000,
   5675.000000,
   5680.000000,
   5685.000000,
   5690.000000,
   5695.000000,
   5700.000000,
   5705.000000,
   5710.000000,
   5715.000000,
   5720.000000,
   5725.000000,
   5730.000000,
   5735.000000,
   5740.000000,
   5745.000000,
   5750.000000,
   5755.000000,
   5760.000000,
   5765.000000,
   5770.000000,
   5775.000000,
   5780.000000,
   5785.000000,
   5790.000000,
   5795.000000,
   5800.000000,
   5805.000000,
   5810.000000,
   5815.000000,
   5820.000000,
   5825.000000,
   5830.000000,
   5835.000000,
   5840.000000,
   5845.000000,
   5850.000000,
   5855.000000,
   5860.000000,
   5865.000000,
   5870.000000,
   5875.000000,
   5880.000000,
   5885.000000,
   5890.000000,
   5895.000000,
   5900.000000,
   5905.000000,
   5910.000000,
   5915.000000,
   5920.000000,
   5925.000000,
   5930.000000,
   5935.000000,
   5940.000000,
   5945.000000,
   5950.000000,
   5955.000000,
   5960.000000,
   5965.000000,
   5970.000000,
   5975.000000,
   5980.000000,
   5985.000000,
   5990.000000,
   5995.000000,
   6000.000000,
   6005.000000,
   6010.000000,
   6015.000000,
   6020.000000,
   6025.000000,
   6030.000000,
   6035.000000,
   6040.000000,
   6045.000000,
   6050.000000,
   6055.000000,
   6060.000000,
   6065.000000,
   6070.000000,
   6075.000000,
   6080.000000,
   6085.000000,
   6090.000000,
   6095.000000,
   6100.000000,
   6105.000000,
   6110.000000,
   6115.000000,
   6120.000000,
   6125.000000,
   6130.000000,
   6135.000000,
   6140.000000,
   6145.000000,
   6150.000000,
   6155.000000,
   6160.000000,
   6165.000000,
   6170.000000,
   6175.000000,
   6180.000000,
   6185.000000,
   6190.000000,
   6195.000000,
   6200.000000,
   6205.000000,
   6210.000000,
   6215.000000,
   6220.000000,
   6225.000000,
   6230.000000,
   6235.000000,
   6240.000000,
   6245.000000,
   6250.000000,
   6255.000000,
   6260.000000,
   6265.000000,
   6270.000000,
   6275.000000,
   6280.000000,
   6285.000000,
   6290.000000,
   6295.000000,
   6300.000000,
   6305.000000,
   6310.000000,
   6315.000000,
   6320.000000,
   6325.000000,
   6330.000000,
   6335.000000,
   6340.000000,
   6345.000000,
   6350.000000,
   6355.000000,
   6360.000000,
   6365.000000,
   6370.000000,
   6375.000000,
   6380.000000,
   6385.000000,
   6390.000000,
   6395.000000,
   6400.000000,
   6405.000000,
   6410.000000,
   6415.000000,
   6420.000000,
   6425.000000,
   6430.000000,
   6435.000000,
   6440.000000,
   6445.000000,
   6450.000000,
   6455.000000,
   6460.000000,
   6465.000000,
   6470.000000,
   6475.000000,
   6480.000000,
   6485.000000,
   6490.000000,
   6495.000000,
   6500.000000,
   6505.000000,
   6510.000000,
   6515.000000,
   6520.000000,
   6525.000000,
   6530.000000,
   6535.000000,
   6540.000000,
   6545.000000,
   6550.000000,
   6555.000000,
   6560.000000,
   6565.000000,
   6570.000000,
   6575.000000,
   6580.000000,
   6585.000000,
   6590.000000,
   6595.000000,
   6600.000000,
   6605.000000,
   6610.000000,
   6615.000000,
   6620.000000,
   6625.000000,
   6630.000000,
   6635.000000,
   6640.000000,
   6645.000000,
   6650.000000,
   6655.000000,
   6660.000000,
   6665.000000,
   6670.000000,
   6675.000000,
   6680.000000,
   6685.000000,
   6690.000000,
   6695.000000,
   6700.000000,
   6705.000000,
   6710.000000,
   6715.000000,
   6720.000000,
   6725.000000,
   6730.000000,
   6735.000000,
   6740.000000,
   6745.000000,
   6750.000000,
   6755.000000,
   6760.000000,
   6765.000000,
   6770.000000,
   6775.000000,
   6780.000000,
   6785.000000,
   6790.000000,
   6795.000000,
   6800.000000,
   6805.000000,
   6810.000000,
   6815.000000,
   6820.000000,
   6825.000000,
   6830.000000,
   6835.000000,
   6840.000000,
   6845.000000,
   6850.000000,
   6855.000000,
   6860.000000,
   6865.000000,
   6870.000000,
   6875.000000,
   6880.000000,
   6885.000000,
   6890.000000,
   6895.000000,
   6900.000000,
   6905.000000,
   6910.000000,
   6915.000000,
   6920.000000,
   6925.000000,
   6930.000000,
   6935.000000,
   6940.000000,
   6945.000000,
   6950.000000,
   6955.000000,
   6960.000000,
   6965.000000,
   6970.000000,
   6975.000000,
   6980.000000,
   6985.000000,
   6990.000000,
   6995.000000,
   7000.000000,
   7005.000000,
   7010.000000,
   7015.000000,
   7020.000000,
   7025.000000,
   7030.000000,
   7035.000000,
   7040.000000,
   7045.000000,
   7050.000000,
   7055.000000,
   7060.000000,
   7065.000000,
   7070.000000,
   7075.000000,
   7080.000000,
   7085.000000,
   7090.000000,
   7095.000000,
   7100.000000,
   7105.000000,
   7110.000000,
   7115.000000,
   7120.000000,
   7125.000000,
   7130.000000,
   7135.000000,
   7140.000000,
   7145.000000,
   7150.000000,
   7155.000000,
   7160.000000,
   7165.000000,
   7170.000000,
   7175.000000,
   7180.000000,
   7185.000000,
   7190.000000,
   7195.000000,
   7200.000000,
   7205.000000,
   7210.000000,
   7215.000000,
   7220.000000,
   7225.000000,
   7230.000000,
   7235.000000,
   7240.000000,
   7245.000000,
   7250.000000,
   7255.000000,
   7260.000000,
   7265.000000,
   7270.000000,
   7275.000000,
   7280.000000,
   7285.000000,
   7290.000000,
   7295.000000,
   7300.000000,
   7305.000000,
   7310.000000,
   7315.000000,
   7320.000000,
   7325.000000,
   7330.000000,
   7335.000000,
   7340.000000,
   7345.000000,
   7350.000000,
   7355.000000,
   7360.000000,
   7365.000000,
   7370.000000,
   7375.000000,
   7380.000000,
   7385.000000,
   7390.000000,
   7395.000000,
   7400.000000,
   7405.000000,
   7410.000000,
   7415.000000,
   7420.000000,
   7425.000000,
   7430.000000,
   7435.000000,
   7440.000000,
   7445.000000,
   7450.000000,
   7455.000000,
   7460.000000,
   7465.000000,
   7470.000000,
   7475.000000,
   7480.000000,
   7485.000000,
   7490.000000,
   7495.000000,
   7500.000000,
   7505.000000,
   7510.000000,
   7515.000000,
   7520.000000,
   7525.000000,
   7530.000000,
   7535.000000,
   7540.000000,
   7545.000000,
   7550.000000,
   7555.000000,
   7560.000000,
   7565.000000,
   7570.000000,
   7575.000000,
   7580.000000,
   7585.000000,
   7590.000000,
   7595.000000,
   7600.000000,
   7605.000000,
   7610.000000,
   7615.000000,
   7620.000000,
   7625.000000,
   7630.000000,
   7635.000000,
   7640.000000,
   7645.000000,
   7650.000000,
   7655.000000,
   7660.000000,
   7665.000000,
   7670.000000,
   7675.000000,
   7680.000000,
   7685.000000,
   7690.000000,
   7695.000000,
   7700.000000,
   7705.000000,
   7710.000000,
   7715.000000,
   7720.000000,
   7725.000000,
   7730.000000,
   7735.000000,
   7740.000000,
   7745.000000,
   7750.000000,
   7755.000000,
   7760.000000,
   7765.000000,
   7770.000000,
   7775.000000,
   7780.000000,
   7785.000000,
   7790.000000,
   7795.000000,
   7800.000000,
   7805.000000,
   7810.000000,
   7815.000000,
   7820.000000,
   7825.000000,
   7830.000000,
   7835.000000,
   7840.000000,
   7845.000000,
   7850.000000,
   7855.000000,
   7860.000000,
   7865.000000,
   7870.000000,
   7875.000000,
   7880.000000,
   7885.000000,
   7890.000000,
   7895.000000,
   7900.000000,
   7905.000000,
   7910.000000,
   7915.000000,
   7920.000000,
   7925.000000,
   7930.000000,
   7935.000000,
   7940.000000,
   7945.000000,
   7950.000000,
   7955.000000,
   7960.000000,
   7965.000000,
   7970.000000,
   7975.000000,
   7980.000000,
   7985.000000,
   7990.000000,
   7995.000000,
   8000.000000,
   8005.000000,
   8010.000000,
   8015.000000,
   8020.000000,
   8025.000000,
   8030.000000,
   8035.000000,
   8040.000000,
   8045.000000,
   8050.000000,
   8055.000000,
   8060.000000,
   8065.000000,
   8070.000000,
   8075.000000,
   8080.000000,
   8085.000000,
   8090.000000,
   8095.000000,
   8100.000000,
   8105.000000,
   8110.000000,
   8115.000000,
   8120.000000,
   8125.000000,
   8130.000000,
   8135.000000,
   8140.000000,
   8145.000000,
   8150.000000,
   8155.000000,
   8160.000000,
   8165.000000,
   8170.000000,
   8175.000000,
   8180.000000,
   8185.000000,
   8190.000000,
   8195.000000,
   8200.000000,
   8205.000000,
   8210.000000,
   8215.000000,
   8220.000000,
   8225.000000,
   8230.000000,
   8235.000000,
   8240.000000,
   8245.000000,
   8250.000000,
   8255.000000,
   8260.000000,
   8265.000000,
   8270.000000,
   8275.000000,
   8280.000000,
   8285.000000,
   8290.000000,
   8295.000000,
   8300.000000,
   8305.000000,
   8310.000000,
   8315.000000,
   8320.000000,
   8325.000000,
   8330.000000,
   8335.000000,
   8340.000000,
   8345.000000,
   8350.000000,
   8355.000000,
   8360.000000,
   8365.000000,
   8370.000000,
   8375.000000,
   8380.000000,
   8385.000000,
   8390.000000,
   8395.000000,
   8400.000000,
   8405.000000,
   8410.000000,
   8415.000000,
   8420.000000,
   8425.000000,
   8430.000000,
   8435.000000,
   8440.000000,
   8445.000000,
   8450.000000,
   8455.000000,
   8460.000000,
   8465.000000,
   8470.000000,
   8475.000000,
   8480.000000,
   8485.000000,
   8490.000000,
   8495.000000,
   8500.000000,
   8505.000000,
   8510.000000,
   8515.000000,
   8520.000000,
   8525.000000,
   8530.000000,
   8535.000000,
   8540.000000,
   8545.000000,
   8550.000000,
   8555.000000,
   8560.000000,
   8565.000000,
   8570.000000,
   8575.000000,
   8580.000000,
   8585.000000,
   8590.000000,
   8595.000000,
   8600.000000,
   8605.000000,
   8610.000000,
   8615.000000,
   8620.000000,
   8625.000000,
   8630.000000,
   8635.000000,
   8640.000000,
   8645.000000,
   8650.000000,
   8655.000000,
   8660.000000,
   8665.000000,
   8670.000000,
   8675.000000,
   8680.000000,
   8685.000000,
   8690.000000,
   8695.000000,
   8700.000000,
   8705.000000,
   8710.000000,
   8715.000000,
   8720.000000,
   8725.000000,
   8730.000000,
   8735.000000,
   8740.000000,
   8745.000000,
   8750.000000,
   8755.000000,
   8760.000000,
   8765.000000,
   8770.000000,
   8775.000000,
   8780.000000,
   8785.000000,
   8790.000000,
   8795.000000,
   8800.000000,
   8805.000000,
   8810.000000,
   8815.000000,
   8820.000000,
   8825.000000,
   8830.000000,
   8835.000000,
   8840.000000,
   8845.000000,
   8850.000000,
   8855.000000,
   8860.000000,
   8865.000000,
   8870.000000,
   8875.000000,
   8880.000000,
   8885.000000,
   8890.000000,
   8895.000000,
   8900.000000,
   8905.000000,
   8910.000000,
   8915.000000,
   8920.000000,
   8925.000000,
   8930.000000,
   8935.000000,
   8940.000000,
   8945.000000,
   8950.000000,
   8955.000000,
   8960.000000,
   8965.000000,
   8970.000000,
   8975.000000,
   8980.000000,
   8985.000000,
   8990.000000,
   8995.000000,
   9000.000000,
   9005.000000,
   9010.000000,
   9015.000000,
   9020.000000,
   9025.000000,
   9030.000000,
   9035.000000,
   9040.000000,
   9045.000000,
   9050.000000,
   9055.000000,
   9060.000000,
   9065.000000,
   9070.000000,
   9075.000000,
   9080.000000,
   9085.000000,
   9090.000000,
   9095.000000,
   9100.000000,
   9105.000000,
   9110.000000,
   9115.000000,
   9120.000000,
   9125.000000,
   9130.000000,
   9135.000000,
   9140.000000,
   9145.000000,
   9150.000000,
   9155.000000,
   9160.000000,
   9165.000000,
   9170.000000,
   9175.000000,
   9180.000000,
   9185.000000,
   9190.000000,
   9195.000000,
   9200.000000,
   9205.000000,
   9210.000000,
   9215.000000,
   9220.000000,
   9225.000000,
   9230.000000,
   9235.000000,
   9240.000000,
   9245.000000,
   9250.000000,
   9255.000000,
   9260.000000,
   9265.000000,
   9270.000000,
   9275.000000,
   9280.000000,
   9285.000000,
   9290.000000,
   9295.000000,
   9300.000000,
   9305.000000,
   9310.000000,
   9315.000000,
   9320.000000,
   9325.000000,
   9330.000000,
   9335.000000,
   9340.000000,
   9345.000000,
   9350.000000,
   9355.000000,
   9360.000000,
   9365.000000,
   9370.000000,
   9375.000000,
   9380.000000,
   9385.000000,
   9390.000000,
   9395.000000,
   9400.000000,
   9405.000000,
   9410.000000,
   9415.000000,
   9420.000000,
   9425.000000,
   9430.000000,
   9435.000000,
   9440.000000,
   9445.000000,
   9450.000000,
   9455.000000,
   9460.000000,
   9465.000000,
   9470.000000,
   9475.000000,
   9480.000000,
   9485.000000,
   9490.000000,
   9495.000000,
   9500.000000,
   9505.000000,
   9510.000000,
   9515.000000,
   9520.000000,
   9525.000000,
   9530.000000,
   9535.000000,
   9540.000000,
   9545.000000,
   9550.000000,
   9555.000000,
   9560.000000,
   9565.000000,
   9570.000000,
   9575.000000,
   9580.000000,
   9585.000000,
   9590.000000,
   9595.000000,
   9600.000000,
   9605.000000,
   9610.000000,
   9615.000000,
   9620.000000,
   9625.000000,
   9630.000000,
   9635.000000,
   9640.000000,
   9645.000000,
   9650.000000,
   9655.000000,
   9660.000000,
   9665.000000,
   9670.000000,
   9675.000000,
   9680.000000,
   9685.000000,
   9690.000000,
   9695.000000,
   9700.000000,
   9705.000000,
   9710.000000,
   9715.000000,
   9720.000000,
   9725.000000,
   9730.000000,
   9735.000000,
   9740.000000,
   9745.000000,
   9750.000000,
   9755.000000,
   9760.000000,
   9765.000000,
   9770.000000,
   9775.000000,
   9780.000000,
   9785.000000,
   9790.000000,
   9795.000000,
   9800.000000,
   9805.000000,
   9810.000000,
   9815.000000,
   9820.000000,
   9825.000000,
   9830.000000,
   9835.000000,
   9840.000000,
   9845.000000,
   9850.000000,
   9855.000000,
   9860.000000,
   9865.000000,
   9870.000000,
   9875.000000,
   9880.000000,
   9885.000000,
   9890.000000,
   9895.000000,
   9900.000000,
   9905.000000,
   9910.000000,
   9915.000000,
   9920.000000,
   9925.000000,
   9930.000000,
   9935.000000,
   9940.000000,
   9945.000000,
   9950.000000,
   9955.000000,
   9960.000000,
   9965.000000,
   9970.000000,
   9975.000000,
   9980.000000,
   9985.000000,
   9990.000000,
   9995.000000,
   10000.000000,
   10005.000000,
   10010.000000,
   10015.000000,
   10020.000000,
   10025.000000,
   10030.000000,
   10035.000000,
   10040.000000,
   10045.000000,
   10050.000000,
   10055.000000,
   10060.000000,
   10065.000000,
   10070.000000,
   10075.000000,
   10080.000000,
   10085.000000,
   10090.000000,
   10095.000000,
   10100.000000,
   10105.000000,
   10110.000000,
   10115.000000,
   10120.000000,
   10125.000000,
   10130.000000,
   10135.000000,
   10140.000000,
   10145.000000,
   10150.000000,
   10155.000000,
   10160.000000,
   10165.000000,
   10170.000000,
   10175.000000,
   10180.000000,
   10185.000000,
   10190.000000,
   10195.000000,
   10200.000000,
   10205.000000,
   10210.000000,
   10215.000000,
   10220.000000,
   10225.000000,
   10230.000000,
   10235.000000,
   10240.000000,
   10245.000000,
   10250.000000,
   10255.000000,
   10260.000000,
   10265.000000,
   10270.000000,
   10275.000000,
   10280.000000,
   10285.000000,
   10290.000000,
   10295.000000,
   10300.000000,
   10305.000000,
   10310.000000,
   10315.000000,
   10320.000000,
   10325.000000,
   10330.000000,
   10335.000000,
   10340.000000,
   10345.000000,
   10350.000000,
   10355.000000,
   10360.000000,
   10365.000000,
   10370.000000,
   10375.000000,
   10380.000000,
   10385.000000,
   10390.000000,
   10395.000000,
   10400.000000,
   10405.000000,
   10410.000000,
   10415.000000,
   10420.000000,
   10425.000000,
   10430.000000,
   10435.000000,
   10440.000000,
   10445.000000,
   10450.000000,
   10455.000000,
   10460.000000,
   10465.000000,
   10470.000000,
   10475.000000,
   10480.000000,
   10485.000000,
   10490.000000,
   10495.000000,
   10500.000000,
   10505.000000,
   10510.000000,
   10515.000000,
   10520.000000,
   10525.000000,
   10530.000000,
   10535.000000,
   10540.000000,
   10545.000000,
   10550.000000,
   10555.000000,
   10560.000000,
   10565.000000,
   10570.000000,
   10575.000000,
   10580.000000,
   10585.000000,
   10590.000000,
   10595.000000,
   10600.000000,
   10605.000000,
   10610.000000,
   10615.000000,
   10620.000000
};

static double _f5i_flux[] = {
   0.009566,
   0.004826,
   0.001545,
   0.001066,
   0.001378,
   0.000907,
   0.000917,
   0.000000,
   0.000510,
   0.000953,
   0.000715,
   0.000958,
   0.001268,
   0.001151,
   0.000744,
   0.000751,
   0.000562,
   0.000338,
   0.000350,
   0.000502,
   0.000479,
   0.000387,
   0.000325,
   0.000367,
   0.000329,
   0.000246,
   0.000310,
   0.000204,
   0.000168,
   0.000433,
   0.000498,
   0.000333,
   0.000298,
   0.000275,
   0.000228,
   0.000235,
   0.000282,
   0.000351,
   0.000405,
   0.000305,
   0.000329,
   0.000230,
   0.000223,
   0.000260,
   0.000415,
   0.000417,
   0.000301,
   0.000144,
   0.000091,
   0.000129,
   0.000161,
   0.000133,
   0.000147,
   0.000212,
   0.000210,
   0.000226,
   0.000264,
   0.000290,
   0.000399,
   0.000570,
   0.000498,
   0.000375,
   0.000213,
   0.000362,
   0.000325,
   0.000471,
   0.000561,
   0.000476,
   0.000687,
   0.000588,
   0.000567,
   0.000605,
   0.000408,
   0.000479,
   0.000673,
   0.000846,
   0.000658,
   0.000676,
   0.000752,
   0.000703,
   0.000782,
   0.000755,
   0.000545,
   0.000614,
   0.000809,
   0.000861,
   0.000790,
   0.000907,
   0.000935,
   0.000869,
   0.000770,
   0.000819,
   0.000911,
   0.000890,
   0.000923,
   0.000861,
   0.000867,
   0.000857,
   0.000810,
   0.000801,
   0.000650,
   0.000656,
   0.001049,
   0.000993,
   0.000976,
   0.001162,
   0.001224,
   0.001478,
   0.001908,
   0.002364,
   0.002775,
   0.003258,
   0.003721,
   0.004332,
   0.004714,
   0.005298,
   0.005063,
   0.005032,
   0.005377,
   0.006640,
   0.007785,
   0.007893,
   0.007545,
   0.008607,
   0.010738,
   0.012521,
   0.011326,
   0.009643,
   0.014732,
   0.017059,
   0.015232,
   0.014287,
   0.017564,
   0.017559,
   0.016997,
   0.015301,
   0.014769,
   0.014830,
   0.012973,
   0.011725,
   0.011783,
   0.012468,
   0.013235,
   0.015834,
   0.018183,
   0.020808,
   0.027119,
   0.028330,
   0.028927,
   0.023391,
   0.019510,
   0.019904,
   0.025818,
   0.035214,
   0.034718,
   0.022964,
   0.017168,
   0.027435,
   0.042151,
   0.045649,
   0.041177,
   0.027200,
   0.023659,
   0.025346,
   0.027620,
   0.027374,
   0.027619,
   0.027394,
   0.025204,
   0.022078,
   0.021962,
   0.023999,
   0.030421,
   0.032926,
   0.033435,
   0.034856,
   0.029623,
   0.032067,
   0.035258,
   0.033128,
   0.035006,
   0.043698,
   0.033724,
   0.036193,
   0.036479,
   0.039979,
   0.044696,
   0.044884,
   0.045292,
   0.041263,
   0.040564,
   0.050908,
   0.049602,
   0.041404,
   0.043732,
   0.051464,
   0.050171,
   0.041472,
   0.038082,
   0.042423,
   0.044731,
   0.048353,
   0.050237,
   0.047481,
   0.043998,
   0.042793,
   0.041050,
   0.036598,
   0.050744,
   0.066056,
   0.066474,
   0.065511,
   0.057311,
   0.046828,
   0.036658,
   0.041323,
   0.047288,
   0.049000,
   0.051843,
   0.053314,
   0.053279,
   0.051510,
   0.047948,
   0.050094,
   0.052285,
   0.051749,
   0.049388,
   0.058530,
   0.063730,
   0.063593,
   0.059901,
   0.050067,
   0.053690,
   0.060392,
   0.057165,
   0.057501,
   0.055375,
   0.042705,
   0.032682,
   0.037505,
   0.028674,
   0.029607,
   0.036711,
   0.034369,
   0.035164,
   0.043518,
   0.047393,
   0.039757,
   0.031020,
   0.030926,
   0.030717,
   0.020659,
   0.024601,
   0.027929,
   0.038236,
   0.059399,
   0.070044,
   0.065487,
   0.066202,
   0.073006,
   0.071259,
   0.068784,
   0.073561,
   0.067601,
   0.059754,
   0.062221,
   0.064572,
   0.063024,
   0.060931,
   0.061477,
   0.069312,
   0.077606,
   0.079244,
   0.077848,
   0.066896,
   0.057712,
   0.052734,
   0.055809,
   0.055406,
   0.056284,
   0.061160,
   0.067298,
   0.070937,
   0.078526,
   0.079372,
   0.079061,
   0.065961,
   0.062048,
   0.069205,
   0.071428,
   0.063080,
   0.054493,
   0.055973,
   0.052491,
   0.057007,
   0.060803,
   0.063476,
   0.070573,
   0.100396,
   0.144667,
   0.165150,
   0.170054,
   0.165186,
   0.148630,
   0.134486,
   0.132742,
   0.139775,
   0.136182,
   0.121515,
   0.115021,
   0.119272,
   0.134211,
   0.136510,
   0.125578,
   0.116737,
   0.115422,
   0.119289,
   0.127751,
   0.117348,
   0.088839,
   0.074128,
   0.073061,
   0.080797,
   0.090661,
   0.100735,
   0.108616,
   0.110913,
   0.098006,
   0.079755,
   0.057041,
   0.033389,
   0.028953,
   0.044168,
   0.076574,
   0.116928,
   0.149527,
   0.162250,
   0.163158,
   0.158913,
   0.149152,
   0.145912,
   0.136885,
   0.149482,
   0.173278,
   0.173502,
   0.169656,
   0.168817,
   0.169273,
   0.186704,
   0.183728,
   0.186454,
   0.214913,
   0.230406,
   0.231957,
   0.235349,
   0.219719,
   0.203138,
   0.206818,
   0.224179,
   0.225656,
   0.218923,
   0.214924,
   0.235506,
   0.258387,
   0.247373,
   0.239324,
   0.267565,
   0.252664,
   0.242603,
   0.264228,
   0.282575,
   0.265610,
   0.264305,
   0.285364,
   0.280889,
   0.271320,
   0.271803,
   0.267214,
   0.264083,
   0.266764,
   0.273998,
   0.285037,
   0.275001,
   0.262649,
   0.287650,
   0.304898,
   0.308495,
   0.315644,
   0.330424,
   0.314977,
   0.284259,
   0.294987,
   0.307046,
   0.317786,
   0.307215,
   0.302267,
   0.311194,
   0.312503,
   0.321693,
   0.335108,
   0.329775,
   0.333335,
   0.323361,
   0.309969,
   0.314453,
   0.340706,
   0.343906,
   0.312207,
   0.318328,
   0.325658,
   0.316112,
   0.317349,
   0.319167,
   0.321501,
   0.324282,
   0.327447,
   0.330929,
   0.334661,
   0.338578,
   0.342614,
   0.346703,
   0.350785,
   0.354827,
   0.358800,
   0.362678,
   0.366433,
   0.370037,
   0.373462,
   0.376682,
   0.379668,
   0.382393,
   0.384838,
   0.387018,
   0.388956,
   0.390675,
   0.392198,
   0.393548,
   0.394749,
   0.395824,
   0.396796,
   0.397689,
   0.398525,
   0.399331,
   0.400134,
   0.400959,
   0.401835,
   0.402786,
   0.403841,
   0.405024,
   0.406364,
   0.407886,
   0.409601,
   0.411457,
   0.413385,
   0.415318,
   0.417186,
   0.418923,
   0.420459,
   0.421726,
   0.422656,
   0.423182,
   0.423260,
   0.422959,
   0.422371,
   0.421590,
   0.420710,
   0.419823,
   0.419024,
   0.418405,
   0.418060,
   0.418083,
   0.418540,
   0.479454,
   0.489170,
   0.482058,
   0.485612,
   0.502559,
   0.511678,
   0.526776,
   0.528556,
   0.524684,
   0.518494,
   0.519145,
   0.498032,
   0.475826,
   0.482041,
   0.483845,
   0.463199,
   0.483968,
   0.520687,
   0.590059,
   0.561354,
   0.540345,
   0.558680,
   0.571768,
   0.598156,
   0.552675,
   0.575267,
   0.586283,
   0.572105,
   0.593233,
   0.655197,
   0.671717,
   0.647436,
   0.656244,
   0.676085,
   0.684000,
   0.706443,
   0.792056,
   0.832221,
   0.866746,
   0.785841,
   0.826460,
   0.960123,
   0.912783,
   0.936166,
   0.927356,
   0.836973,
   1.025036,
   0.929479,
   0.850807,
   1.060119,
   1.042880,
   1.052219,
   0.978244,
   1.175279,
   1.445515,
   1.377985,
   1.193856,
   1.010640,
   1.134603,
   1.412516,
   1.499637,
   1.409939,
   1.414266,
   1.238805,
   1.024510,
   0.881350,
   1.131182,
   1.371999,
   1.464395,
   1.521034,
   1.579261,
   1.669800,
   1.631310,
   1.506454,
   1.383492,
   1.092594,
   1.014714,
   1.189398,
   1.316855,
   1.391902,
   1.456872,
   1.317695,
   1.214641,
   0.976822,
   0.502157,
   0.439327,
   0.851682,
   1.137133,
   1.240666,
   1.258423,
   1.052831,
   0.602284,
   0.526670,
   0.989260,
   1.332934,
   1.474177,
   1.550827,
   1.533803,
   1.533423,
   1.574289,
   1.649819,
   1.703518,
   1.710997,
   1.627991,
   1.543770,
   1.613866,
   1.671479,
   1.611994,
   1.604666,
   1.584972,
   1.604686,
   1.572349,
   1.529941,
   1.416071,
   1.457436,
   1.538148,
   1.569530,
   1.393506,
   1.116481,
   1.234628,
   1.446896,
   1.553706,
   1.492636,
   1.439617,
   1.416341,
   1.572143,
   1.633212,
   1.585500,
   1.553863,
   1.531866,
   1.574444,
   1.623260,
   1.482543,
   1.338805,
   1.379031,
   1.444851,
   1.529141,
   1.528496,
   1.440934,
   1.439739,
   1.545096,
   1.570726,
   1.539184,
   1.431340,
   1.508921,
   1.467286,
   1.515022,
   1.496977,
   1.477637,
   1.523582,
   1.539597,
   1.607269,
   1.497415,
   1.504608,
   1.541143,
   1.456004,
   1.375958,
   1.356841,
   1.250506,
   1.319773,
   1.411481,
   1.415254,
   1.478759,
   1.445092,
   1.405266,
   1.221099,
   0.988497,
   1.214514,
   1.378108,
   1.495244,
   1.588674,
   1.623957,
   1.526283,
   1.524235,
   1.529615,
   1.395394,
   1.451286,
   1.402795,
   1.396692,
   1.451036,
   1.417460,
   1.334607,
   1.366351,
   1.409271,
   1.391101,
   1.428794,
   1.430712,
   1.363450,
   1.429383,
   1.393201,
   1.366763,
   1.371935,
   1.396835,
   1.515062,
   1.470157,
   1.470287,
   1.430330,
   1.461946,
   1.532107,
   1.572688,
   1.582331,
   1.513708,
   1.431721,
   1.381514,
   1.357519,
   1.434401,
   1.457571,
   1.411854,
   1.336981,
   1.350925,
   1.414923,
   1.454414,
   1.473541,
   1.455019,
   1.375082,
   1.360470,
   1.393297,
   1.447640,
   1.466510,
   1.507764,
   1.533643,
   1.477595,
   1.481808,
   1.514916,
   1.470934,
   1.480213,
   1.529737,
   1.501641,
   1.498726,
   1.492220,
   1.495306,
   1.396685,
   1.405555,
   1.511475,
   1.507847,
   1.525201,
   1.514507,
   1.497414,
   1.455413,
   1.422484,
   1.425471,
   1.465090,
   1.492484,
   1.467901,
   1.397752,
   1.404839,
   1.449629,
   1.485727,
   1.483397,
   1.441789,
   1.379787,
   1.343225,
   1.418345,
   1.450834,
   1.429108,
   1.406504,
   1.414320,
   1.419169,
   1.400698,
   1.387319,
   1.414707,
   1.433664,
   1.396214,
   1.361458,
   1.371741,
   1.368352,
   1.361256,
   1.333160,
   1.260133,
   1.115955,
   0.938107,
   0.941444,
   1.071187,
   1.144442,
   1.203499,
   1.225175,
   1.223848,
   1.257223,
   1.296601,
   1.322745,
   1.311750,
   1.304020,
   1.240091,
   1.237010,
   1.304392,
   1.315925,
   1.313220,
   1.346328,
   1.360875,
   1.328274,
   1.318252,
   1.324076,
   1.323578,
   1.321496,
   1.272903,
   1.230989,
   1.236804,
   1.262326,
   1.231247,
   1.191601,
   1.178431,
   1.153960,
   1.150645,
   1.206134,
   1.235073,
   1.230234,
   1.210865,
   1.220147,
   1.229121,
   1.252381,
   1.278091,
   1.267155,
   1.232658,
   1.207949,
   1.197248,
   1.205014,
   1.236213,
   1.229607,
   1.212215,
   1.217746,
   1.222291,
   1.220873,
   1.205792,
   1.177274,
   1.153607,
   1.161833,
   1.167979,
   1.160895,
   1.160109,
   1.152121,
   1.151030,
   1.099346,
   1.069146,
   1.118414,
   1.152877,
   1.115248,
   1.074217,
   1.065989,
   1.078594,
   1.075957,
   1.103033,
   1.131690,
   1.145261,
   1.101886,
   1.068426,
   1.060017,
   1.111048,
   1.135723,
   1.122408,
   1.113377,
   1.087761,
   1.006450,
   0.971365,
   0.989469,
   1.038730,
   1.076510,
   1.121346,
   1.129934,
   1.109961,
   1.102479,
   1.095877,
   1.080596,
   1.076657,
   1.051696,
   1.030159,
   1.035875,
   1.048406,
   1.072618,
   1.090959,
   1.116666,
   1.110130,
   1.064559,
   1.044112,
   1.065248,
   1.066199,
   1.071727,
   1.080907,
   1.055482,
   1.029433,
   1.011718,
   1.008670,
   1.027919,
   1.034934,
   1.031406,
   1.026725,
   1.035144,
   1.056973,
   1.045335,
   1.038492,
   1.039615,
   1.046378,
   1.048445,
   1.040381,
   1.024945,
   1.011536,
   1.026970,
   1.037650,
   1.031775,
   1.019211,
   1.003493,
   1.000292,
   1.027793,
   1.033700,
   1.004612,
   0.982342,
   0.991552,
   1.009226,
   1.012617,
   1.020339,
   1.027793,
   1.021737,
   1.008168,
   0.995635,
   0.998617,
   1.001248,
   0.984385,
   0.968756,
   0.961963,
   0.966254,
   0.979309,
   0.997439,
   0.982777,
   0.974891,
   0.975272,
   0.982323,
   0.985571,
   0.976481,
   0.974396,
   0.975646,
   0.948157,
   0.917147,
   0.910421,
   0.923050,
   0.952279,
   0.958655,
   0.936099,
   0.932851,
   0.937739,
   0.945311,
   0.927669,
   0.913802,
   0.926324,
   0.946042,
   0.957640,
   0.956098,
   0.950948,
   0.945713,
   0.938009,
   0.932411,
   0.933020,
   0.937219,
   0.934915,
   0.930551,
   0.915332,
   0.887072,
   0.877265,
   0.889133,
   0.896319,
   0.898712,
   0.903949,
   0.904836,
   0.908669,
   0.919128,
   0.926723,
   0.924625,
   0.927702,
   0.938737,
   0.932649,
   0.915833,
   0.900145,
   0.900140,
   0.916551,
   0.936760,
   0.939144,
   0.930549,
   0.879977,
   0.798237,
   0.790010,
   0.840625,
   0.904307,
   0.919071,
   0.920027,
   0.920787,
   0.914663,
   0.909562,
   0.909368,
   0.912859,
   0.901515,
   0.890119,
   0.894750,
   0.906106,
   0.903988,
   0.898557,
   0.890837,
   0.881402,
   0.879565,
   0.870290,
   0.883300,
   0.883613,
   0.874155,
   0.873033,
   0.870942,
   0.863174,
   0.855185,
   0.865262,
   0.873215,
   0.867615,
   0.866155,
   0.871469,
   0.867622,
   0.874147,
   0.865543,
   0.872638,
   0.869826,
   0.858766,
   0.851648,
   0.861835,
   0.858814,
   0.846529,
   0.845470,
   0.850282,
   0.845070,
   0.841746,
   0.840427,
   0.843536,
   0.822518,
   0.795323,
   0.808583,
   0.818769,
   0.828815,
   0.812348,
   0.806887,
   0.811254,
   0.823079,
   0.834763,
   0.837731,
   0.830710,
   0.836687,
   0.842158,
   0.842123,
   0.839644,
   0.828678,
   0.826057,
   0.832773,
   0.811379,
   0.800729,
   0.797167,
   0.781559,
   0.795425,
   0.802360,
   0.811282,
   0.813245,
   0.810534,
   0.800504,
   0.762270,
   0.777367,
   0.804083,
   0.808395,
   0.790464,
   0.794917,
   0.795833,
   0.786713,
   0.783767,
   0.800645,
   0.802501,
   0.792665,
   0.789893,
   0.778577,
   0.784266,
   0.796793,
   0.788522,
   0.779507,
   0.768559,
   0.781884,
   0.784447,
   0.780534,
   0.779602,
   0.774964,
   0.776774,
   0.774999,
   0.765481,
   0.758286,
   0.760243,
   0.774579,
   0.762354,
   0.761714,
   0.765254,
   0.769012,
   0.760043,
   0.735684,
   0.737372,
   0.747391,
   0.754091,
   0.755169,
   0.746735,
   0.736372,
   0.711388,
   0.672680,
   0.718041,
   0.753999,
   0.753525,
   0.729499,
   0.735498,
   0.739997,
   0.737036,
   0.736154,
   0.731908,
   0.719620,
   0.699847,
   0.654173,
   0.552451,
   0.544650,
   0.652938,
   0.697519,
   0.715809,
   0.717670,
   0.713655,
   0.716186,
   0.728393,
   0.724537,
   0.727254,
   0.733701,
   0.738964,
   0.735241,
   0.726377,
   0.718920,
   0.719153,
   0.717425,
   0.723796,
   0.720221,
   0.715591,
   0.714256,
   0.714704,
   0.705594,
   0.701985,
   0.717540,
   0.717721,
   0.712086,
   0.712061,
   0.707874,
   0.703986,
   0.693192,
   0.696717,
   0.705645,
   0.704905,
   0.704089,
   0.699101,
   0.695918,
   0.690027,
   0.690166,
   0.696271,
   0.695551,
   0.691463,
   0.693149,
   0.692052,
   0.688411,
   0.689252,
   0.686196,
   0.688309,
   0.689089,
   0.690017,
   0.687235,
   0.682063,
   0.678835,
   0.675948,
   0.675775,
   0.676888,
   0.675827,
   0.674797,
   0.673784,
   0.672625,
   0.671630,
   0.670696,
   0.669763,
   0.668833,
   0.667919,
   0.666917,
   0.665824,
   0.664819,
   0.663810,
   0.662775,
   0.661978,
   0.661451,
   0.660591,
   0.659751,
   0.658979,
   0.658625,
   0.658391,
   0.657705,
   0.657088,
   0.656548,
   0.655823,
   0.655872,
   0.648948,
   0.643346,
   0.647721,
   0.643988,
   0.638844,
   0.626226,
   0.626529,
   0.638676,
   0.637132,
   0.634901,
   0.632364,
   0.635726,
   0.636635,
   0.635100,
   0.637293,
   0.634809,
   0.634946,
   0.634435,
   0.629841,
   0.627602,
   0.630746,
   0.631124,
   0.629120,
   0.626446,
   0.624616,
   0.625111,
   0.626701,
   0.619506,
   0.614292,
   0.615921,
   0.625039,
   0.628286,
   0.630633,
   0.627826,
   0.619942,
   0.622332,
   0.633469,
   0.626867,
   0.611942,
   0.607090,
   0.600933,
   0.589566,
   0.571709,
   0.576908,
   0.586966,
   0.585502,
   0.587187,
   0.607023,
   0.616146,
   0.608586,
   0.603752,
   0.607319,
   0.600893,
   0.599998,
   0.600154,
   0.601262,
   0.599437,
   0.599213,
   0.592589,
   0.595548,
   0.581132,
   0.583881,
   0.582667,
   0.567640,
   0.579395,
   0.584268,
   0.574173,
   0.571056,
   0.582022,
   0.583065,
   0.583763,
   0.583608,
   0.587822,
   0.592838,
   0.588403,
   0.581705,
   0.572656,
   0.577438,
   0.579916,
   0.578761,
   0.578320,
   0.576235,
   0.564448,
   0.559467,
   0.565539,
   0.570021,
   0.565071,
   0.550718,
   0.548355,
   0.554120,
   0.557846,
   0.564265,
   0.564935,
   0.563153,
   0.553274,
   0.554023,
   0.563428,
   0.561273,
   0.555284,
   0.562079,
   0.560435,
   0.555685,
   0.557160,
   0.555946,
   0.547181,
   0.551556,
   0.551032,
   0.540769,
   0.537379,
   0.548027,
   0.543565,
   0.542826,
   0.539849,
   0.550995,
   0.549224,
   0.546094,
   0.545417,
   0.544196,
   0.543229,
   0.542254,
   0.540917,
   0.539586,
   0.538650,
   0.537600,
   0.536543,
   0.535454,
   0.534810,
   0.534107,
   0.533332,
   0.532562,
   0.531790,
   0.531017,
   0.530244,
   0.529469,
   0.528694,
   0.527918,
   0.527140,
   0.526361,
   0.525579,
   0.524801,
   0.523903,
   0.522968,
   0.522216,
   0.521657,
   0.520910,
   0.520040,
   0.519219,
   0.519057,
   0.519864,
   0.519957,
   0.519292,
   0.518090,
   0.520594,
   0.519773,
   0.513922,
   0.508694,
   0.513059,
   0.514105,
   0.511313,
   0.492432,
   0.468886,
   0.490676,
   0.506367,
   0.510538,
   0.509963,
   0.505515,
   0.507566,
   0.507359,
   0.507832,
   0.509996,
   0.507525,
   0.501376,
   0.495724,
   0.498108,
   0.498004,
   0.495567,
   0.493724,
   0.496754,
   0.495717,
   0.497523,
   0.493888,
   0.491264,
   0.494312,
   0.497435,
   0.491119,
   0.491447,
   0.497251,
   0.492183,
   0.489940,
   0.483819,
   0.483469,
   0.483364,
   0.477823,
   0.477916,
   0.475303,
   0.478786,
   0.484426,
   0.484996,
   0.483758,
   0.484850,
   0.485669,
   0.484504,
   0.483702,
   0.481419,
   0.478330,
   0.472174,
   0.478288,
   0.476707,
   0.475834,
   0.477013,
   0.474305,
   0.475003,
   0.473801,
   0.473836,
   0.468705,
   0.468590,
   0.472371,
   0.470407,
   0.472044,
   0.471815,
   0.472262,
   0.469788,
   0.465647,
   0.467910,
   0.468214,
   0.467495,
   0.471293,
   0.469568,
   0.469026,
   0.471311,
   0.469837,
   0.469419,
   0.465147,
   0.467337,
   0.459963,
   0.458941,
   0.458386,
   0.453646,
   0.447133,
   0.456423,
   0.458106,
   0.445621,
   0.439539,
   0.446928,
   0.440442,
   0.442387,
   0.457125,
   0.464026,
   0.454652,
   0.447486,
   0.439644,
   0.426728,
   0.438709,
   0.454781,
   0.451938,
   0.448358,
   0.447851,
   0.452049,
   0.458352,
   0.455794,
   0.450129,
   0.446250,
   0.446740,
   0.442968,
   0.443594,
   0.448144,
   0.444791,
   0.442481,
   0.442435,
   0.437497,
   0.434086,
   0.428736,
   0.421875,
   0.428477,
   0.439607,
   0.443392,
   0.442849,
   0.439264,
   0.441136,
   0.441044,
   0.435672,
   0.439448,
   0.437121,
   0.427545,
   0.429736,
   0.438347,
   0.440435,
   0.431833,
   0.424386,
   0.432506,
   0.437804,
   0.435148,
   0.423383,
   0.414280,
   0.419452,
   0.427514,
   0.436739,
   0.434094,
   0.411931,
   0.409352,
   0.427717,
   0.435847,
   0.440117,
   0.436718,
   0.400809,
   0.352639,
   0.383913,
   0.414953,
   0.419948,
   0.424146,
   0.424292,
   0.414747,
   0.386572,
   0.320305,
   0.286774,
   0.360049,
   0.401050,
   0.414287,
   0.421000,
   0.418202,
   0.418324,
   0.415855,
   0.407705,
   0.401935,
   0.385943,
   0.374941,
   0.395718,
   0.404297,
   0.405561,
   0.414659,
   0.416953,
   0.417323,
   0.419502,
   0.420907,
   0.417204,
   0.402884,
   0.386978,
   0.324897,
   0.292691,
   0.349901,
   0.382371,
   0.390438,
   0.394170,
   0.401234,
   0.409566,
   0.415439,
   0.421802,
   0.421780,
   0.421497,
   0.425833,
   0.421514,
   0.415069,
   0.410670,
   0.403559,
   0.393032,
   0.369306,
   0.373112,
   0.396484,
   0.403480,
   0.405411,
   0.408148,
   0.411370,
   0.406331,
   0.406139,
   0.398438,
   0.405664,
   0.399854,
   0.398937,
   0.406505,
   0.405170,
   0.398114,
   0.403166,
   0.406320,
   0.397872,
   0.401125,
   0.393790,
   0.387714,
   0.368769,
   0.357698,
   0.373993,
   0.389695,
   0.394129,
   0.396848,
   0.403009,
   0.403679,
   0.404820,
   0.402959,
   0.398029,
   0.395621,
   0.401923,
   0.392175,
   0.385382,
   0.402078,
   0.404034,
   0.397921,
   0.392206,
   0.397774,
   0.403089,
   0.392098,
   0.388250,
   0.387883,
   0.387615,
   0.379511,
   0.360126,
   0.378877,
   0.366705,
   0.364245,
   0.353833,
   0.331102,
   0.342982,
   0.367010,
   0.382675,
   0.398765,
   0.398513,
   0.404359,
   0.401871,
   0.399155,
   0.376706,
   0.371171,
   0.381554,
   0.377515,
   0.367417,
   0.372130,
   0.359710,
   0.363860,
   0.371756,
   0.384437,
   0.381791,
   0.381258,
   0.384411,
   0.394793,
   0.383950,
   0.377594,
   0.383704,
   0.389020,
   0.378564,
   0.366663,
   0.370157,
   0.376577,
   0.375933,
   0.365312,
   0.371776,
   0.375426,
   0.379491,
   0.377356,
   0.376463,
   0.375365,
   0.363674,
   0.347635,
   0.341947,
   0.335644,
   0.317255,
   0.333552,
   0.347239,
   0.350373,
   0.360662,
   0.362413,
   0.361515,
   0.368130,
   0.377619,
   0.382077,
   0.378865,
   0.380735,
   0.381285,
   0.376461,
   0.365546,
   0.363322,
   0.355295,
   0.341879,
   0.326334,
   0.333352,
   0.335633,
   0.324304,
   0.316544,
   0.295787,
   0.343455,
   0.325334,
   0.327615,
   0.350689,
   0.330802,
   0.349818,
   0.346911,
   0.360008,
   0.385117,
   0.390607,
   0.389506,
   0.373461,
   0.362395,
   0.366493,
   0.368161,
   0.356388,
   0.328953,
   0.346355,
   0.315581,
   0.324525,
   0.350400,
   0.341931,
   0.321942,
   0.343913,
   0.353980,
   0.369594,
   0.336366,
   0.346768,
   0.359927,
   0.334162,
   0.315787,
   0.330486,
   0.358829,
   0.349551,
   0.316552,
   0.311728,
   0.335619,
   0.335136,
   0.322327,
   0.289551,
   0.299389,
   0.311491,
   0.321023,
   0.319030,
   0.322103,
   0.346110,
   0.335367,
   0.330851,
   0.322663,
   0.320118,
   0.331006,
   0.330022,
   0.335970,
   0.338274,
   0.325119,
   0.320722,
   0.331335,
   0.327462,
   0.324779,
   0.328687,
   0.331840,
   0.330436,
   0.316153,
   0.326707,
   0.332393,
   0.340127,
   0.331358,
   0.337870,
   0.334765,
   0.340327,
   0.332742,
   0.334310,
   0.334298,
   0.325937,
   0.329372,
   0.328963,
   0.327707,
   0.321781,
   0.323204,
   0.322291,
   0.318819,
   0.320061,
   0.319147,
   0.320926,
   0.324023,
   0.322287,
   0.320897,
   0.313454,
   0.318603,
   0.323468,
   0.315099,
   0.317102,
   0.321472,
   0.318009,
   0.319660,
   0.317653,
   0.317348,
   0.317056,
   0.319625,
   0.314778,
   0.314921,
   0.312288,
   0.314496,
   0.303097,
   0.317171,
   0.314820,
   0.313209,
   0.311666,
   0.309091,
   0.313939,
   0.308169,
   0.310749,
   0.310106,
   0.313503,
   0.305871,
   0.307206,
   0.307784,
   0.308609,
   0.313888,
   0.316234,
   0.302120,
   0.304955,
   0.308653,
   0.306308,
   0.304735,
   0.302108,
   0.305555,
   0.305021,
   0.304573,
   0.307809,
   0.302423,
   0.305423,
   0.299841,
   0.291024,
   0.302621,
   0.294721,
   0.289006,
   0.286540,
   0.279736,
   0.277616,
   0.268110,
   0.272671,
   0.283165,
   0.282387,
   0.279014,
   0.281310,
   0.290387,
   0.287657,
   0.284410,
   0.291186,
   0.273845,
   0.287476,
   0.285712,
   0.282177,
   0.286266,
   0.285420,
   0.284860,
   0.281674,
   0.282792,
   0.282503,
   0.282461,
   0.282716,
   0.283230,
   0.283944,
   0.284800,
   0.285738,
   0.286699,
   0.287625,
   0.288456,
   0.289134,
   0.289599,
   0.289809,
   0.289783,
   0.289560,
   0.289175,
   0.288664,
   0.288066,
   0.287416,
   0.286750,
   0.286106,
   0.285520,
   0.285020,
   0.284601,
   0.284249,
   0.283949,
   0.283687,
   0.283450,
   0.283222,
   0.282991,
   0.282742,
   0.282461,
   0.282137,
   0.281775,
   0.281381,
   0.280964,
   0.280530,
   0.280088,
   0.279645,
   0.279208,
   0.278784,
   0.278382,
   0.278007,
   0.277657,
   0.277328,
   0.277017,
   0.276721,
   0.276435,
   0.276155,
   0.275880,
   0.275603,
   0.275323,
   0.275036,
   0.274742,
   0.274442,
   0.274138,
   0.273829,
   0.273518,
   0.273205,
   0.272891,
   0.272577,
   0.272264,
   0.271952,
   0.271642,
   0.271334,
   0.271027,
   0.270721,
   0.270417,
   0.270113,
   0.269810,
   0.269507,
   0.269205,
   0.268902,
   0.268600,
   0.268299,
   0.267997,
   0.267695,
   0.267394,
   0.267093,
   0.266792,
   0.266491,
   0.266190,
   0.265890,
   0.265589,
   0.265289,
   0.264989,
   0.264689,
   0.264389,
   0.264090,
   0.263790,
   0.263491,
   0.263192,
   0.262893,
   0.262594,
   0.262295,
   0.261997
};

#endif
