#ifndef _F6V_H_
#define _F6V_H_

/* spectrum for f6v star           */
/* number of elements = 1895       */

static double _f6v_lambda[] = {
   1150.000000,
   1155.000000,
   1160.000000,
   1165.000000,
   1170.000000,
   1175.000000,
   1180.000000,
   1185.000000,
   1190.000000,
   1195.000000,
   1200.000000,
   1205.000000,
   1210.000000,
   1215.000000,
   1220.000000,
   1225.000000,
   1230.000000,
   1235.000000,
   1240.000000,
   1245.000000,
   1250.000000,
   1255.000000,
   1260.000000,
   1265.000000,
   1270.000000,
   1275.000000,
   1280.000000,
   1285.000000,
   1290.000000,
   1295.000000,
   1300.000000,
   1305.000000,
   1310.000000,
   1315.000000,
   1320.000000,
   1325.000000,
   1330.000000,
   1335.000000,
   1340.000000,
   1345.000000,
   1350.000000,
   1355.000000,
   1360.000000,
   1365.000000,
   1370.000000,
   1375.000000,
   1380.000000,
   1385.000000,
   1390.000000,
   1395.000000,
   1400.000000,
   1405.000000,
   1410.000000,
   1415.000000,
   1420.000000,
   1425.000000,
   1430.000000,
   1435.000000,
   1440.000000,
   1445.000000,
   1450.000000,
   1455.000000,
   1460.000000,
   1465.000000,
   1470.000000,
   1475.000000,
   1480.000000,
   1485.000000,
   1490.000000,
   1495.000000,
   1500.000000,
   1505.000000,
   1510.000000,
   1515.000000,
   1520.000000,
   1525.000000,
   1530.000000,
   1535.000000,
   1540.000000,
   1545.000000,
   1550.000000,
   1555.000000,
   1560.000000,
   1565.000000,
   1570.000000,
   1575.000000,
   1580.000000,
   1585.000000,
   1590.000000,
   1595.000000,
   1600.000000,
   1605.000000,
   1610.000000,
   1615.000000,
   1620.000000,
   1625.000000,
   1630.000000,
   1635.000000,
   1640.000000,
   1645.000000,
   1650.000000,
   1655.000000,
   1660.000000,
   1665.000000,
   1670.000000,
   1675.000000,
   1680.000000,
   1685.000000,
   1690.000000,
   1695.000000,
   1700.000000,
   1705.000000,
   1710.000000,
   1715.000000,
   1720.000000,
   1725.000000,
   1730.000000,
   1735.000000,
   1740.000000,
   1745.000000,
   1750.000000,
   1755.000000,
   1760.000000,
   1765.000000,
   1770.000000,
   1775.000000,
   1780.000000,
   1785.000000,
   1790.000000,
   1795.000000,
   1800.000000,
   1805.000000,
   1810.000000,
   1815.000000,
   1820.000000,
   1825.000000,
   1830.000000,
   1835.000000,
   1840.000000,
   1845.000000,
   1850.000000,
   1855.000000,
   1860.000000,
   1865.000000,
   1870.000000,
   1875.000000,
   1880.000000,
   1885.000000,
   1890.000000,
   1895.000000,
   1900.000000,
   1905.000000,
   1910.000000,
   1915.000000,
   1920.000000,
   1925.000000,
   1930.000000,
   1935.000000,
   1940.000000,
   1945.000000,
   1950.000000,
   1955.000000,
   1960.000000,
   1965.000000,
   1970.000000,
   1975.000000,
   1980.000000,
   1985.000000,
   1990.000000,
   1995.000000,
   2000.000000,
   2005.000000,
   2010.000000,
   2015.000000,
   2020.000000,
   2025.000000,
   2030.000000,
   2035.000000,
   2040.000000,
   2045.000000,
   2050.000000,
   2055.000000,
   2060.000000,
   2065.000000,
   2070.000000,
   2075.000000,
   2080.000000,
   2085.000000,
   2090.000000,
   2095.000000,
   2100.000000,
   2105.000000,
   2110.000000,
   2115.000000,
   2120.000000,
   2125.000000,
   2130.000000,
   2135.000000,
   2140.000000,
   2145.000000,
   2150.000000,
   2155.000000,
   2160.000000,
   2165.000000,
   2170.000000,
   2175.000000,
   2180.000000,
   2185.000000,
   2190.000000,
   2195.000000,
   2200.000000,
   2205.000000,
   2210.000000,
   2215.000000,
   2220.000000,
   2225.000000,
   2230.000000,
   2235.000000,
   2240.000000,
   2245.000000,
   2250.000000,
   2255.000000,
   2260.000000,
   2265.000000,
   2270.000000,
   2275.000000,
   2280.000000,
   2285.000000,
   2290.000000,
   2295.000000,
   2300.000000,
   2305.000000,
   2310.000000,
   2315.000000,
   2320.000000,
   2325.000000,
   2330.000000,
   2335.000000,
   2340.000000,
   2345.000000,
   2350.000000,
   2355.000000,
   2360.000000,
   2365.000000,
   2370.000000,
   2375.000000,
   2380.000000,
   2385.000000,
   2390.000000,
   2395.000000,
   2400.000000,
   2405.000000,
   2410.000000,
   2415.000000,
   2420.000000,
   2425.000000,
   2430.000000,
   2435.000000,
   2440.000000,
   2445.000000,
   2450.000000,
   2455.000000,
   2460.000000,
   2465.000000,
   2470.000000,
   2475.000000,
   2480.000000,
   2485.000000,
   2490.000000,
   2495.000000,
   2500.000000,
   2505.000000,
   2510.000000,
   2515.000000,
   2520.000000,
   2525.000000,
   2530.000000,
   2535.000000,
   2540.000000,
   2545.000000,
   2550.000000,
   2555.000000,
   2560.000000,
   2565.000000,
   2570.000000,
   2575.000000,
   2580.000000,
   2585.000000,
   2590.000000,
   2595.000000,
   2600.000000,
   2605.000000,
   2610.000000,
   2615.000000,
   2620.000000,
   2625.000000,
   2630.000000,
   2635.000000,
   2640.000000,
   2645.000000,
   2650.000000,
   2655.000000,
   2660.000000,
   2665.000000,
   2670.000000,
   2675.000000,
   2680.000000,
   2685.000000,
   2690.000000,
   2695.000000,
   2700.000000,
   2705.000000,
   2710.000000,
   2715.000000,
   2720.000000,
   2725.000000,
   2730.000000,
   2735.000000,
   2740.000000,
   2745.000000,
   2750.000000,
   2755.000000,
   2760.000000,
   2765.000000,
   2770.000000,
   2775.000000,
   2780.000000,
   2785.000000,
   2790.000000,
   2795.000000,
   2800.000000,
   2805.000000,
   2810.000000,
   2815.000000,
   2820.000000,
   2825.000000,
   2830.000000,
   2835.000000,
   2840.000000,
   2845.000000,
   2850.000000,
   2855.000000,
   2860.000000,
   2865.000000,
   2870.000000,
   2875.000000,
   2880.000000,
   2885.000000,
   2890.000000,
   2895.000000,
   2900.000000,
   2905.000000,
   2910.000000,
   2915.000000,
   2920.000000,
   2925.000000,
   2930.000000,
   2935.000000,
   2940.000000,
   2945.000000,
   2950.000000,
   2955.000000,
   2960.000000,
   2965.000000,
   2970.000000,
   2975.000000,
   2980.000000,
   2985.000000,
   2990.000000,
   2995.000000,
   3000.000000,
   3005.000000,
   3010.000000,
   3015.000000,
   3020.000000,
   3025.000000,
   3030.000000,
   3035.000000,
   3040.000000,
   3045.000000,
   3050.000000,
   3055.000000,
   3060.000000,
   3065.000000,
   3070.000000,
   3075.000000,
   3080.000000,
   3085.000000,
   3090.000000,
   3095.000000,
   3100.000000,
   3105.000000,
   3110.000000,
   3115.000000,
   3120.000000,
   3125.000000,
   3130.000000,
   3135.000000,
   3140.000000,
   3145.000000,
   3150.000000,
   3155.000000,
   3160.000000,
   3165.000000,
   3170.000000,
   3175.000000,
   3180.000000,
   3185.000000,
   3190.000000,
   3195.000000,
   3200.000000,
   3205.000000,
   3210.000000,
   3215.000000,
   3220.000000,
   3225.000000,
   3230.000000,
   3235.000000,
   3240.000000,
   3245.000000,
   3250.000000,
   3255.000000,
   3260.000000,
   3265.000000,
   3270.000000,
   3275.000000,
   3280.000000,
   3285.000000,
   3290.000000,
   3295.000000,
   3300.000000,
   3305.000000,
   3310.000000,
   3315.000000,
   3320.000000,
   3325.000000,
   3330.000000,
   3335.000000,
   3340.000000,
   3345.000000,
   3350.000000,
   3355.000000,
   3360.000000,
   3365.000000,
   3370.000000,
   3375.000000,
   3380.000000,
   3385.000000,
   3390.000000,
   3395.000000,
   3400.000000,
   3405.000000,
   3410.000000,
   3415.000000,
   3420.000000,
   3425.000000,
   3430.000000,
   3435.000000,
   3440.000000,
   3445.000000,
   3450.000000,
   3455.000000,
   3460.000000,
   3465.000000,
   3470.000000,
   3475.000000,
   3480.000000,
   3485.000000,
   3490.000000,
   3495.000000,
   3500.000000,
   3505.000000,
   3510.000000,
   3515.000000,
   3520.000000,
   3525.000000,
   3530.000000,
   3535.000000,
   3540.000000,
   3545.000000,
   3550.000000,
   3555.000000,
   3560.000000,
   3565.000000,
   3570.000000,
   3575.000000,
   3580.000000,
   3585.000000,
   3590.000000,
   3595.000000,
   3600.000000,
   3605.000000,
   3610.000000,
   3615.000000,
   3620.000000,
   3625.000000,
   3630.000000,
   3635.000000,
   3640.000000,
   3645.000000,
   3650.000000,
   3655.000000,
   3660.000000,
   3665.000000,
   3670.000000,
   3675.000000,
   3680.000000,
   3685.000000,
   3690.000000,
   3695.000000,
   3700.000000,
   3705.000000,
   3710.000000,
   3715.000000,
   3720.000000,
   3725.000000,
   3730.000000,
   3735.000000,
   3740.000000,
   3745.000000,
   3750.000000,
   3755.000000,
   3760.000000,
   3765.000000,
   3770.000000,
   3775.000000,
   3780.000000,
   3785.000000,
   3790.000000,
   3795.000000,
   3800.000000,
   3805.000000,
   3810.000000,
   3815.000000,
   3820.000000,
   3825.000000,
   3830.000000,
   3835.000000,
   3840.000000,
   3845.000000,
   3850.000000,
   3855.000000,
   3860.000000,
   3865.000000,
   3870.000000,
   3875.000000,
   3880.000000,
   3885.000000,
   3890.000000,
   3895.000000,
   3900.000000,
   3905.000000,
   3910.000000,
   3915.000000,
   3920.000000,
   3925.000000,
   3930.000000,
   3935.000000,
   3940.000000,
   3945.000000,
   3950.000000,
   3955.000000,
   3960.000000,
   3965.000000,
   3970.000000,
   3975.000000,
   3980.000000,
   3985.000000,
   3990.000000,
   3995.000000,
   4000.000000,
   4005.000000,
   4010.000000,
   4015.000000,
   4020.000000,
   4025.000000,
   4030.000000,
   4035.000000,
   4040.000000,
   4045.000000,
   4050.000000,
   4055.000000,
   4060.000000,
   4065.000000,
   4070.000000,
   4075.000000,
   4080.000000,
   4085.000000,
   4090.000000,
   4095.000000,
   4100.000000,
   4105.000000,
   4110.000000,
   4115.000000,
   4120.000000,
   4125.000000,
   4130.000000,
   4135.000000,
   4140.000000,
   4145.000000,
   4150.000000,
   4155.000000,
   4160.000000,
   4165.000000,
   4170.000000,
   4175.000000,
   4180.000000,
   4185.000000,
   4190.000000,
   4195.000000,
   4200.000000,
   4205.000000,
   4210.000000,
   4215.000000,
   4220.000000,
   4225.000000,
   4230.000000,
   4235.000000,
   4240.000000,
   4245.000000,
   4250.000000,
   4255.000000,
   4260.000000,
   4265.000000,
   4270.000000,
   4275.000000,
   4280.000000,
   4285.000000,
   4290.000000,
   4295.000000,
   4300.000000,
   4305.000000,
   4310.000000,
   4315.000000,
   4320.000000,
   4325.000000,
   4330.000000,
   4335.000000,
   4340.000000,
   4345.000000,
   4350.000000,
   4355.000000,
   4360.000000,
   4365.000000,
   4370.000000,
   4375.000000,
   4380.000000,
   4385.000000,
   4390.000000,
   4395.000000,
   4400.000000,
   4405.000000,
   4410.000000,
   4415.000000,
   4420.000000,
   4425.000000,
   4430.000000,
   4435.000000,
   4440.000000,
   4445.000000,
   4450.000000,
   4455.000000,
   4460.000000,
   4465.000000,
   4470.000000,
   4475.000000,
   4480.000000,
   4485.000000,
   4490.000000,
   4495.000000,
   4500.000000,
   4505.000000,
   4510.000000,
   4515.000000,
   4520.000000,
   4525.000000,
   4530.000000,
   4535.000000,
   4540.000000,
   4545.000000,
   4550.000000,
   4555.000000,
   4560.000000,
   4565.000000,
   4570.000000,
   4575.000000,
   4580.000000,
   4585.000000,
   4590.000000,
   4595.000000,
   4600.000000,
   4605.000000,
   4610.000000,
   4615.000000,
   4620.000000,
   4625.000000,
   4630.000000,
   4635.000000,
   4640.000000,
   4645.000000,
   4650.000000,
   4655.000000,
   4660.000000,
   4665.000000,
   4670.000000,
   4675.000000,
   4680.000000,
   4685.000000,
   4690.000000,
   4695.000000,
   4700.000000,
   4705.000000,
   4710.000000,
   4715.000000,
   4720.000000,
   4725.000000,
   4730.000000,
   4735.000000,
   4740.000000,
   4745.000000,
   4750.000000,
   4755.000000,
   4760.000000,
   4765.000000,
   4770.000000,
   4775.000000,
   4780.000000,
   4785.000000,
   4790.000000,
   4795.000000,
   4800.000000,
   4805.000000,
   4810.000000,
   4815.000000,
   4820.000000,
   4825.000000,
   4830.000000,
   4835.000000,
   4840.000000,
   4845.000000,
   4850.000000,
   4855.000000,
   4860.000000,
   4865.000000,
   4870.000000,
   4875.000000,
   4880.000000,
   4885.000000,
   4890.000000,
   4895.000000,
   4900.000000,
   4905.000000,
   4910.000000,
   4915.000000,
   4920.000000,
   4925.000000,
   4930.000000,
   4935.000000,
   4940.000000,
   4945.000000,
   4950.000000,
   4955.000000,
   4960.000000,
   4965.000000,
   4970.000000,
   4975.000000,
   4980.000000,
   4985.000000,
   4990.000000,
   4995.000000,
   5000.000000,
   5005.000000,
   5010.000000,
   5015.000000,
   5020.000000,
   5025.000000,
   5030.000000,
   5035.000000,
   5040.000000,
   5045.000000,
   5050.000000,
   5055.000000,
   5060.000000,
   5065.000000,
   5070.000000,
   5075.000000,
   5080.000000,
   5085.000000,
   5090.000000,
   5095.000000,
   5100.000000,
   5105.000000,
   5110.000000,
   5115.000000,
   5120.000000,
   5125.000000,
   5130.000000,
   5135.000000,
   5140.000000,
   5145.000000,
   5150.000000,
   5155.000000,
   5160.000000,
   5165.000000,
   5170.000000,
   5175.000000,
   5180.000000,
   5185.000000,
   5190.000000,
   5195.000000,
   5200.000000,
   5205.000000,
   5210.000000,
   5215.000000,
   5220.000000,
   5225.000000,
   5230.000000,
   5235.000000,
   5240.000000,
   5245.000000,
   5250.000000,
   5255.000000,
   5260.000000,
   5265.000000,
   5270.000000,
   5275.000000,
   5280.000000,
   5285.000000,
   5290.000000,
   5295.000000,
   5300.000000,
   5305.000000,
   5310.000000,
   5315.000000,
   5320.000000,
   5325.000000,
   5330.000000,
   5335.000000,
   5340.000000,
   5345.000000,
   5350.000000,
   5355.000000,
   5360.000000,
   5365.000000,
   5370.000000,
   5375.000000,
   5380.000000,
   5385.000000,
   5390.000000,
   5395.000000,
   5400.000000,
   5405.000000,
   5410.000000,
   5415.000000,
   5420.000000,
   5425.000000,
   5430.000000,
   5435.000000,
   5440.000000,
   5445.000000,
   5450.000000,
   5455.000000,
   5460.000000,
   5465.000000,
   5470.000000,
   5475.000000,
   5480.000000,
   5485.000000,
   5490.000000,
   5495.000000,
   5500.000000,
   5505.000000,
   5510.000000,
   5515.000000,
   5520.000000,
   5525.000000,
   5530.000000,
   5535.000000,
   5540.000000,
   5545.000000,
   5550.000000,
   5555.000000,
   5560.000000,
   5565.000000,
   5570.000000,
   5575.000000,
   5580.000000,
   5585.000000,
   5590.000000,
   5595.000000,
   5600.000000,
   5605.000000,
   5610.000000,
   5615.000000,
   5620.000000,
   5625.000000,
   5630.000000,
   5635.000000,
   5640.000000,
   5645.000000,
   5650.000000,
   5655.000000,
   5660.000000,
   5665.000000,
   5670.000000,
   5675.000000,
   5680.000000,
   5685.000000,
   5690.000000,
   5695.000000,
   5700.000000,
   5705.000000,
   5710.000000,
   5715.000000,
   5720.000000,
   5725.000000,
   5730.000000,
   5735.000000,
   5740.000000,
   5745.000000,
   5750.000000,
   5755.000000,
   5760.000000,
   5765.000000,
   5770.000000,
   5775.000000,
   5780.000000,
   5785.000000,
   5790.000000,
   5795.000000,
   5800.000000,
   5805.000000,
   5810.000000,
   5815.000000,
   5820.000000,
   5825.000000,
   5830.000000,
   5835.000000,
   5840.000000,
   5845.000000,
   5850.000000,
   5855.000000,
   5860.000000,
   5865.000000,
   5870.000000,
   5875.000000,
   5880.000000,
   5885.000000,
   5890.000000,
   5895.000000,
   5900.000000,
   5905.000000,
   5910.000000,
   5915.000000,
   5920.000000,
   5925.000000,
   5930.000000,
   5935.000000,
   5940.000000,
   5945.000000,
   5950.000000,
   5955.000000,
   5960.000000,
   5965.000000,
   5970.000000,
   5975.000000,
   5980.000000,
   5985.000000,
   5990.000000,
   5995.000000,
   6000.000000,
   6005.000000,
   6010.000000,
   6015.000000,
   6020.000000,
   6025.000000,
   6030.000000,
   6035.000000,
   6040.000000,
   6045.000000,
   6050.000000,
   6055.000000,
   6060.000000,
   6065.000000,
   6070.000000,
   6075.000000,
   6080.000000,
   6085.000000,
   6090.000000,
   6095.000000,
   6100.000000,
   6105.000000,
   6110.000000,
   6115.000000,
   6120.000000,
   6125.000000,
   6130.000000,
   6135.000000,
   6140.000000,
   6145.000000,
   6150.000000,
   6155.000000,
   6160.000000,
   6165.000000,
   6170.000000,
   6175.000000,
   6180.000000,
   6185.000000,
   6190.000000,
   6195.000000,
   6200.000000,
   6205.000000,
   6210.000000,
   6215.000000,
   6220.000000,
   6225.000000,
   6230.000000,
   6235.000000,
   6240.000000,
   6245.000000,
   6250.000000,
   6255.000000,
   6260.000000,
   6265.000000,
   6270.000000,
   6275.000000,
   6280.000000,
   6285.000000,
   6290.000000,
   6295.000000,
   6300.000000,
   6305.000000,
   6310.000000,
   6315.000000,
   6320.000000,
   6325.000000,
   6330.000000,
   6335.000000,
   6340.000000,
   6345.000000,
   6350.000000,
   6355.000000,
   6360.000000,
   6365.000000,
   6370.000000,
   6375.000000,
   6380.000000,
   6385.000000,
   6390.000000,
   6395.000000,
   6400.000000,
   6405.000000,
   6410.000000,
   6415.000000,
   6420.000000,
   6425.000000,
   6430.000000,
   6435.000000,
   6440.000000,
   6445.000000,
   6450.000000,
   6455.000000,
   6460.000000,
   6465.000000,
   6470.000000,
   6475.000000,
   6480.000000,
   6485.000000,
   6490.000000,
   6495.000000,
   6500.000000,
   6505.000000,
   6510.000000,
   6515.000000,
   6520.000000,
   6525.000000,
   6530.000000,
   6535.000000,
   6540.000000,
   6545.000000,
   6550.000000,
   6555.000000,
   6560.000000,
   6565.000000,
   6570.000000,
   6575.000000,
   6580.000000,
   6585.000000,
   6590.000000,
   6595.000000,
   6600.000000,
   6605.000000,
   6610.000000,
   6615.000000,
   6620.000000,
   6625.000000,
   6630.000000,
   6635.000000,
   6640.000000,
   6645.000000,
   6650.000000,
   6655.000000,
   6660.000000,
   6665.000000,
   6670.000000,
   6675.000000,
   6680.000000,
   6685.000000,
   6690.000000,
   6695.000000,
   6700.000000,
   6705.000000,
   6710.000000,
   6715.000000,
   6720.000000,
   6725.000000,
   6730.000000,
   6735.000000,
   6740.000000,
   6745.000000,
   6750.000000,
   6755.000000,
   6760.000000,
   6765.000000,
   6770.000000,
   6775.000000,
   6780.000000,
   6785.000000,
   6790.000000,
   6795.000000,
   6800.000000,
   6805.000000,
   6810.000000,
   6815.000000,
   6820.000000,
   6825.000000,
   6830.000000,
   6835.000000,
   6840.000000,
   6845.000000,
   6850.000000,
   6855.000000,
   6860.000000,
   6865.000000,
   6870.000000,
   6875.000000,
   6880.000000,
   6885.000000,
   6890.000000,
   6895.000000,
   6900.000000,
   6905.000000,
   6910.000000,
   6915.000000,
   6920.000000,
   6925.000000,
   6930.000000,
   6935.000000,
   6940.000000,
   6945.000000,
   6950.000000,
   6955.000000,
   6960.000000,
   6965.000000,
   6970.000000,
   6975.000000,
   6980.000000,
   6985.000000,
   6990.000000,
   6995.000000,
   7000.000000,
   7005.000000,
   7010.000000,
   7015.000000,
   7020.000000,
   7025.000000,
   7030.000000,
   7035.000000,
   7040.000000,
   7045.000000,
   7050.000000,
   7055.000000,
   7060.000000,
   7065.000000,
   7070.000000,
   7075.000000,
   7080.000000,
   7085.000000,
   7090.000000,
   7095.000000,
   7100.000000,
   7105.000000,
   7110.000000,
   7115.000000,
   7120.000000,
   7125.000000,
   7130.000000,
   7135.000000,
   7140.000000,
   7145.000000,
   7150.000000,
   7155.000000,
   7160.000000,
   7165.000000,
   7170.000000,
   7175.000000,
   7180.000000,
   7185.000000,
   7190.000000,
   7195.000000,
   7200.000000,
   7205.000000,
   7210.000000,
   7215.000000,
   7220.000000,
   7225.000000,
   7230.000000,
   7235.000000,
   7240.000000,
   7245.000000,
   7250.000000,
   7255.000000,
   7260.000000,
   7265.000000,
   7270.000000,
   7275.000000,
   7280.000000,
   7285.000000,
   7290.000000,
   7295.000000,
   7300.000000,
   7305.000000,
   7310.000000,
   7315.000000,
   7320.000000,
   7325.000000,
   7330.000000,
   7335.000000,
   7340.000000,
   7345.000000,
   7350.000000,
   7355.000000,
   7360.000000,
   7365.000000,
   7370.000000,
   7375.000000,
   7380.000000,
   7385.000000,
   7390.000000,
   7395.000000,
   7400.000000,
   7405.000000,
   7410.000000,
   7415.000000,
   7420.000000,
   7425.000000,
   7430.000000,
   7435.000000,
   7440.000000,
   7445.000000,
   7450.000000,
   7455.000000,
   7460.000000,
   7465.000000,
   7470.000000,
   7475.000000,
   7480.000000,
   7485.000000,
   7490.000000,
   7495.000000,
   7500.000000,
   7505.000000,
   7510.000000,
   7515.000000,
   7520.000000,
   7525.000000,
   7530.000000,
   7535.000000,
   7540.000000,
   7545.000000,
   7550.000000,
   7555.000000,
   7560.000000,
   7565.000000,
   7570.000000,
   7575.000000,
   7580.000000,
   7585.000000,
   7590.000000,
   7595.000000,
   7600.000000,
   7605.000000,
   7610.000000,
   7615.000000,
   7620.000000,
   7625.000000,
   7630.000000,
   7635.000000,
   7640.000000,
   7645.000000,
   7650.000000,
   7655.000000,
   7660.000000,
   7665.000000,
   7670.000000,
   7675.000000,
   7680.000000,
   7685.000000,
   7690.000000,
   7695.000000,
   7700.000000,
   7705.000000,
   7710.000000,
   7715.000000,
   7720.000000,
   7725.000000,
   7730.000000,
   7735.000000,
   7740.000000,
   7745.000000,
   7750.000000,
   7755.000000,
   7760.000000,
   7765.000000,
   7770.000000,
   7775.000000,
   7780.000000,
   7785.000000,
   7790.000000,
   7795.000000,
   7800.000000,
   7805.000000,
   7810.000000,
   7815.000000,
   7820.000000,
   7825.000000,
   7830.000000,
   7835.000000,
   7840.000000,
   7845.000000,
   7850.000000,
   7855.000000,
   7860.000000,
   7865.000000,
   7870.000000,
   7875.000000,
   7880.000000,
   7885.000000,
   7890.000000,
   7895.000000,
   7900.000000,
   7905.000000,
   7910.000000,
   7915.000000,
   7920.000000,
   7925.000000,
   7930.000000,
   7935.000000,
   7940.000000,
   7945.000000,
   7950.000000,
   7955.000000,
   7960.000000,
   7965.000000,
   7970.000000,
   7975.000000,
   7980.000000,
   7985.000000,
   7990.000000,
   7995.000000,
   8000.000000,
   8005.000000,
   8010.000000,
   8015.000000,
   8020.000000,
   8025.000000,
   8030.000000,
   8035.000000,
   8040.000000,
   8045.000000,
   8050.000000,
   8055.000000,
   8060.000000,
   8065.000000,
   8070.000000,
   8075.000000,
   8080.000000,
   8085.000000,
   8090.000000,
   8095.000000,
   8100.000000,
   8105.000000,
   8110.000000,
   8115.000000,
   8120.000000,
   8125.000000,
   8130.000000,
   8135.000000,
   8140.000000,
   8145.000000,
   8150.000000,
   8155.000000,
   8160.000000,
   8165.000000,
   8170.000000,
   8175.000000,
   8180.000000,
   8185.000000,
   8190.000000,
   8195.000000,
   8200.000000,
   8205.000000,
   8210.000000,
   8215.000000,
   8220.000000,
   8225.000000,
   8230.000000,
   8235.000000,
   8240.000000,
   8245.000000,
   8250.000000,
   8255.000000,
   8260.000000,
   8265.000000,
   8270.000000,
   8275.000000,
   8280.000000,
   8285.000000,
   8290.000000,
   8295.000000,
   8300.000000,
   8305.000000,
   8310.000000,
   8315.000000,
   8320.000000,
   8325.000000,
   8330.000000,
   8335.000000,
   8340.000000,
   8345.000000,
   8350.000000,
   8355.000000,
   8360.000000,
   8365.000000,
   8370.000000,
   8375.000000,
   8380.000000,
   8385.000000,
   8390.000000,
   8395.000000,
   8400.000000,
   8405.000000,
   8410.000000,
   8415.000000,
   8420.000000,
   8425.000000,
   8430.000000,
   8435.000000,
   8440.000000,
   8445.000000,
   8450.000000,
   8455.000000,
   8460.000000,
   8465.000000,
   8470.000000,
   8475.000000,
   8480.000000,
   8485.000000,
   8490.000000,
   8495.000000,
   8500.000000,
   8505.000000,
   8510.000000,
   8515.000000,
   8520.000000,
   8525.000000,
   8530.000000,
   8535.000000,
   8540.000000,
   8545.000000,
   8550.000000,
   8555.000000,
   8560.000000,
   8565.000000,
   8570.000000,
   8575.000000,
   8580.000000,
   8585.000000,
   8590.000000,
   8595.000000,
   8600.000000,
   8605.000000,
   8610.000000,
   8615.000000,
   8620.000000,
   8625.000000,
   8630.000000,
   8635.000000,
   8640.000000,
   8645.000000,
   8650.000000,
   8655.000000,
   8660.000000,
   8665.000000,
   8670.000000,
   8675.000000,
   8680.000000,
   8685.000000,
   8690.000000,
   8695.000000,
   8700.000000,
   8705.000000,
   8710.000000,
   8715.000000,
   8720.000000,
   8725.000000,
   8730.000000,
   8735.000000,
   8740.000000,
   8745.000000,
   8750.000000,
   8755.000000,
   8760.000000,
   8765.000000,
   8770.000000,
   8775.000000,
   8780.000000,
   8785.000000,
   8790.000000,
   8795.000000,
   8800.000000,
   8805.000000,
   8810.000000,
   8815.000000,
   8820.000000,
   8825.000000,
   8830.000000,
   8835.000000,
   8840.000000,
   8845.000000,
   8850.000000,
   8855.000000,
   8860.000000,
   8865.000000,
   8870.000000,
   8875.000000,
   8880.000000,
   8885.000000,
   8890.000000,
   8895.000000,
   8900.000000,
   8905.000000,
   8910.000000,
   8915.000000,
   8920.000000,
   8925.000000,
   8930.000000,
   8935.000000,
   8940.000000,
   8945.000000,
   8950.000000,
   8955.000000,
   8960.000000,
   8965.000000,
   8970.000000,
   8975.000000,
   8980.000000,
   8985.000000,
   8990.000000,
   8995.000000,
   9000.000000,
   9005.000000,
   9010.000000,
   9015.000000,
   9020.000000,
   9025.000000,
   9030.000000,
   9035.000000,
   9040.000000,
   9045.000000,
   9050.000000,
   9055.000000,
   9060.000000,
   9065.000000,
   9070.000000,
   9075.000000,
   9080.000000,
   9085.000000,
   9090.000000,
   9095.000000,
   9100.000000,
   9105.000000,
   9110.000000,
   9115.000000,
   9120.000000,
   9125.000000,
   9130.000000,
   9135.000000,
   9140.000000,
   9145.000000,
   9150.000000,
   9155.000000,
   9160.000000,
   9165.000000,
   9170.000000,
   9175.000000,
   9180.000000,
   9185.000000,
   9190.000000,
   9195.000000,
   9200.000000,
   9205.000000,
   9210.000000,
   9215.000000,
   9220.000000,
   9225.000000,
   9230.000000,
   9235.000000,
   9240.000000,
   9245.000000,
   9250.000000,
   9255.000000,
   9260.000000,
   9265.000000,
   9270.000000,
   9275.000000,
   9280.000000,
   9285.000000,
   9290.000000,
   9295.000000,
   9300.000000,
   9305.000000,
   9310.000000,
   9315.000000,
   9320.000000,
   9325.000000,
   9330.000000,
   9335.000000,
   9340.000000,
   9345.000000,
   9350.000000,
   9355.000000,
   9360.000000,
   9365.000000,
   9370.000000,
   9375.000000,
   9380.000000,
   9385.000000,
   9390.000000,
   9395.000000,
   9400.000000,
   9405.000000,
   9410.000000,
   9415.000000,
   9420.000000,
   9425.000000,
   9430.000000,
   9435.000000,
   9440.000000,
   9445.000000,
   9450.000000,
   9455.000000,
   9460.000000,
   9465.000000,
   9470.000000,
   9475.000000,
   9480.000000,
   9485.000000,
   9490.000000,
   9495.000000,
   9500.000000,
   9505.000000,
   9510.000000,
   9515.000000,
   9520.000000,
   9525.000000,
   9530.000000,
   9535.000000,
   9540.000000,
   9545.000000,
   9550.000000,
   9555.000000,
   9560.000000,
   9565.000000,
   9570.000000,
   9575.000000,
   9580.000000,
   9585.000000,
   9590.000000,
   9595.000000,
   9600.000000,
   9605.000000,
   9610.000000,
   9615.000000,
   9620.000000,
   9625.000000,
   9630.000000,
   9635.000000,
   9640.000000,
   9645.000000,
   9650.000000,
   9655.000000,
   9660.000000,
   9665.000000,
   9670.000000,
   9675.000000,
   9680.000000,
   9685.000000,
   9690.000000,
   9695.000000,
   9700.000000,
   9705.000000,
   9710.000000,
   9715.000000,
   9720.000000,
   9725.000000,
   9730.000000,
   9735.000000,
   9740.000000,
   9745.000000,
   9750.000000,
   9755.000000,
   9760.000000,
   9765.000000,
   9770.000000,
   9775.000000,
   9780.000000,
   9785.000000,
   9790.000000,
   9795.000000,
   9800.000000,
   9805.000000,
   9810.000000,
   9815.000000,
   9820.000000,
   9825.000000,
   9830.000000,
   9835.000000,
   9840.000000,
   9845.000000,
   9850.000000,
   9855.000000,
   9860.000000,
   9865.000000,
   9870.000000,
   9875.000000,
   9880.000000,
   9885.000000,
   9890.000000,
   9895.000000,
   9900.000000,
   9905.000000,
   9910.000000,
   9915.000000,
   9920.000000,
   9925.000000,
   9930.000000,
   9935.000000,
   9940.000000,
   9945.000000,
   9950.000000,
   9955.000000,
   9960.000000,
   9965.000000,
   9970.000000,
   9975.000000,
   9980.000000,
   9985.000000,
   9990.000000,
   9995.000000,
   10000.000000,
   10005.000000,
   10010.000000,
   10015.000000,
   10020.000000,
   10025.000000,
   10030.000000,
   10035.000000,
   10040.000000,
   10045.000000,
   10050.000000,
   10055.000000,
   10060.000000,
   10065.000000,
   10070.000000,
   10075.000000,
   10080.000000,
   10085.000000,
   10090.000000,
   10095.000000,
   10100.000000,
   10105.000000,
   10110.000000,
   10115.000000,
   10120.000000,
   10125.000000,
   10130.000000,
   10135.000000,
   10140.000000,
   10145.000000,
   10150.000000,
   10155.000000,
   10160.000000,
   10165.000000,
   10170.000000,
   10175.000000,
   10180.000000,
   10185.000000,
   10190.000000,
   10195.000000,
   10200.000000,
   10205.000000,
   10210.000000,
   10215.000000,
   10220.000000,
   10225.000000,
   10230.000000,
   10235.000000,
   10240.000000,
   10245.000000,
   10250.000000,
   10255.000000,
   10260.000000,
   10265.000000,
   10270.000000,
   10275.000000,
   10280.000000,
   10285.000000,
   10290.000000,
   10295.000000,
   10300.000000,
   10305.000000,
   10310.000000,
   10315.000000,
   10320.000000,
   10325.000000,
   10330.000000,
   10335.000000,
   10340.000000,
   10345.000000,
   10350.000000,
   10355.000000,
   10360.000000,
   10365.000000,
   10370.000000,
   10375.000000,
   10380.000000,
   10385.000000,
   10390.000000,
   10395.000000,
   10400.000000,
   10405.000000,
   10410.000000,
   10415.000000,
   10420.000000,
   10425.000000,
   10430.000000,
   10435.000000,
   10440.000000,
   10445.000000,
   10450.000000,
   10455.000000,
   10460.000000,
   10465.000000,
   10470.000000,
   10475.000000,
   10480.000000,
   10485.000000,
   10490.000000,
   10495.000000,
   10500.000000,
   10505.000000,
   10510.000000,
   10515.000000,
   10520.000000,
   10525.000000,
   10530.000000,
   10535.000000,
   10540.000000,
   10545.000000,
   10550.000000,
   10555.000000,
   10560.000000,
   10565.000000,
   10570.000000,
   10575.000000,
   10580.000000,
   10585.000000,
   10590.000000,
   10595.000000,
   10600.000000,
   10605.000000,
   10610.000000,
   10615.000000,
   10620.000000
};

static double _f6v_flux[] = {
   0.017546,
   0.005564,
   0.000000,
   0.000994,
   0.000000,
   0.000000,
   0.000000,
   0.000000,
   0.000000,
   0.000000,
   0.000878,
   0.004509,
   0.006506,
   0.003204,
   0.000422,
   0.000497,
   0.001112,
   0.001392,
   0.001193,
   0.000482,
   0.000915,
   0.000192,
   0.001303,
   0.000881,
   0.000592,
   0.000613,
   0.000576,
   0.000131,
   0.000000,
   0.000101,
   0.000401,
   0.000602,
   0.000392,
   0.000320,
   0.000653,
   0.000270,
   0.000528,
   0.000481,
   0.000440,
   0.000394,
   0.000697,
   0.000706,
   0.000466,
   0.000000,
   0.001468,
   0.001413,
   0.000286,
   0.000030,
   0.000217,
   0.000096,
   0.000213,
   0.000056,
   0.000098,
   0.000649,
   0.000186,
   0.000343,
   0.000824,
   0.000674,
   0.000377,
   0.001225,
   0.000916,
   0.000259,
   0.000041,
   0.000347,
   0.000212,
   0.000656,
   0.000463,
   0.000713,
   0.001426,
   0.000965,
   0.000765,
   0.000910,
   0.000867,
   0.000219,
   0.000321,
   0.000623,
   0.001920,
   0.001985,
   0.001487,
   0.000377,
   0.000642,
   0.001432,
   0.001903,
   0.001270,
   0.000615,
   0.001334,
   0.001517,
   0.000530,
   0.001302,
   0.001224,
   0.000799,
   0.000796,
   0.001449,
   0.000890,
   0.000484,
   0.000296,
   0.000798,
   0.000418,
   0.000146,
   0.000343,
   0.000837,
   0.001267,
   0.001598,
   0.001447,
   0.001374,
   0.001612,
   0.001632,
   0.001262,
   0.001423,
   0.002721,
   0.002761,
   0.002743,
   0.003368,
   0.003526,
   0.003594,
   0.005142,
   0.004837,
   0.005351,
   0.007400,
   0.008485,
   0.010095,
   0.011038,
   0.010634,
   0.013006,
   0.016979,
   0.019219,
   0.018590,
   0.016280,
   0.017129,
   0.019971,
   0.020069,
   0.018621,
   0.020321,
   0.022662,
   0.026802,
   0.026880,
   0.026306,
   0.022861,
   0.017350,
   0.014788,
   0.019671,
   0.023957,
   0.029222,
   0.035601,
   0.034946,
   0.035211,
   0.040818,
   0.039595,
   0.037159,
   0.035240,
   0.039456,
   0.045115,
   0.048699,
   0.050869,
   0.046493,
   0.033016,
   0.025368,
   0.040101,
   0.059234,
   0.063703,
   0.060460,
   0.049781,
   0.052884,
   0.044626,
   0.051557,
   0.071674,
   0.050590,
   0.067312,
   0.058253,
   0.027687,
   0.058116,
   0.074874,
   0.050077,
   0.070791,
   0.074678,
   0.064306,
   0.056813,
   0.079543,
   0.099492,
   0.082069,
   0.090124,
   0.114530,
   0.100037,
   0.070050,
   0.104749,
   0.127149,
   0.144673,
   0.142973,
   0.130649,
   0.114647,
   0.134888,
   0.155203,
   0.152920,
   0.158768,
   0.144002,
   0.154746,
   0.157025,
   0.142908,
   0.136168,
   0.153729,
   0.151464,
   0.150440,
   0.152680,
   0.136836,
   0.142392,
   0.117248,
   0.125147,
   0.151932,
   0.173514,
   0.190825,
   0.203158,
   0.194515,
   0.157439,
   0.133622,
   0.127724,
   0.142680,
   0.151388,
   0.160352,
   0.171191,
   0.161133,
   0.169596,
   0.177114,
   0.163814,
   0.146233,
   0.134217,
   0.120173,
   0.126585,
   0.142339,
   0.165885,
   0.163834,
   0.156591,
   0.146202,
   0.154620,
   0.149262,
   0.141999,
   0.137093,
   0.126780,
   0.126238,
   0.099713,
   0.106900,
   0.098668,
   0.121336,
   0.140692,
   0.098700,
   0.112521,
   0.140162,
   0.136678,
   0.089793,
   0.087640,
   0.103327,
   0.095712,
   0.087335,
   0.072390,
   0.080136,
   0.112537,
   0.156795,
   0.179345,
   0.167856,
   0.145196,
   0.163471,
   0.151344,
   0.130922,
   0.144433,
   0.150353,
   0.152040,
   0.150604,
   0.152006,
   0.127663,
   0.108736,
   0.109876,
   0.163970,
   0.161463,
   0.130814,
   0.120778,
   0.091237,
   0.079580,
   0.094871,
   0.102724,
   0.113737,
   0.119227,
   0.115717,
   0.135916,
   0.156550,
   0.175156,
   0.203306,
   0.218433,
   0.196499,
   0.184753,
   0.191858,
   0.205614,
   0.168806,
   0.156887,
   0.156353,
   0.144206,
   0.176987,
   0.198121,
   0.172326,
   0.219925,
   0.393978,
   0.463032,
   0.403352,
   0.378008,
   0.441586,
   0.374231,
   0.328639,
   0.354147,
   0.356668,
   0.361764,
   0.353326,
   0.349811,
   0.417405,
   0.415538,
   0.338723,
   0.323216,
   0.349916,
   0.353704,
   0.439607,
   0.378865,
   0.261228,
   0.192176,
   0.197574,
   0.238356,
   0.232212,
   0.279151,
   0.303197,
   0.335158,
   0.306244,
   0.228404,
   0.179767,
   0.109607,
   0.072523,
   0.075900,
   0.138160,
   0.273095,
   0.447768,
   0.476492,
   0.484283,
   0.488469,
   0.389736,
   0.382688,
   0.348630,
   0.229016,
   0.321538,
   0.374820,
   0.384273,
   0.430608,
   0.403478,
   0.376586,
   0.402989,
   0.399550,
   0.391483,
   0.412998,
   0.468751,
   0.526463,
   0.480844,
   0.432539,
   0.425327,
   0.451214,
   0.448178,
   0.455202,
   0.459992,
   0.464921,
   0.499471,
   0.504600,
   0.512582,
   0.472862,
   0.484927,
   0.502343,
   0.516893,
   0.520202,
   0.477819,
   0.460421,
   0.477126,
   0.470800,
   0.469919,
   0.542750,
   0.594194,
   0.582103,
   0.629134,
   0.556008,
   0.524996,
   0.558715,
   0.499009,
   0.456959,
   0.495419,
   0.503158,
   0.522123,
   0.493405,
   0.478625,
   0.424166,
   0.402291,
   0.451616,
   0.525622,
   0.545544,
   0.476323,
   0.464023,
   0.493706,
   0.517833,
   0.522211,
   0.506032,
   0.526924,
   0.508018,
   0.475803,
   0.518442,
   0.561796,
   0.558111,
   0.531697,
   0.535118,
   0.552263,
   0.560875,
   0.581945,
   0.647008,
   0.660149,
   0.656504,
   0.630702,
   0.588227,
   0.566334,
   0.593350,
   0.630106,
   0.637645,
   0.645355,
   0.685063,
   0.730018,
   0.746156,
   0.728733,
   0.686889,
   0.655961,
   0.667070,
   0.708264,
   0.754965,
   0.775154,
   0.748570,
   0.709415,
   0.694835,
   0.699306,
   0.707837,
   0.710260,
   0.701946,
   0.695597,
   0.702055,
   0.707406,
   0.696690,
   0.675537,
   0.655192,
   0.648780,
   0.664244,
   0.686930,
   0.700552,
   0.704902,
   0.703123,
   0.695698,
   0.684467,
   0.679343,
   0.687850,
   0.699869,
   0.702671,
   0.690737,
   0.664697,
   0.642565,
   0.640600,
   0.650666,
   0.660824,
   0.668344,
   0.672180,
   0.668827,
   0.656681,
   0.644214,
   0.639993,
   0.642881,
   0.650819,
   0.667745,
   0.693903,
   0.717513,
   0.709288,
   0.689107,
   0.679936,
   0.700207,
   0.727878,
   0.753031,
   0.769280,
   0.775917,
   0.764201,
   0.739179,
   0.699460,
   0.659621,
   0.648167,
   0.637617,
   0.615791,
   0.638267,
   0.704865,
   0.741880,
   0.706254,
   0.669126,
   0.665555,
   0.678050,
   0.713300,
   0.722253,
   0.705516,
   0.719024,
   0.709965,
   0.711956,
   0.771516,
   0.816337,
   0.810519,
   0.791132,
   0.787734,
   0.770840,
   0.761674,
   0.782792,
   0.822522,
   0.834694,
   0.785066,
   0.771537,
   0.803043,
   0.792201,
   0.792208,
   0.785831,
   0.733980,
   0.738426,
   0.714006,
   0.696345,
   0.787892,
   0.830318,
   0.820500,
   0.795554,
   0.872130,
   0.982240,
   0.989953,
   0.904895,
   0.808779,
   0.811884,
   0.926686,
   0.998965,
   0.963508,
   0.883034,
   0.797528,
   0.706258,
   0.640407,
   0.705688,
   0.871831,
   0.983963,
   0.994328,
   0.970077,
   0.999993,
   1.001095,
   0.972454,
   0.918237,
   0.811593,
   0.755411,
   0.845463,
   0.940543,
   0.976838,
   1.008401,
   1.022486,
   0.972578,
   0.828140,
   0.602014,
   0.508812,
   0.652143,
   0.835838,
   0.963755,
   0.990815,
   0.878678,
   0.631928,
   0.516993,
   0.707709,
   0.950554,
   1.071429,
   1.126821,
   1.155222,
   1.163077,
   1.167282,
   1.185399,
   1.211568,
   1.230885,
   1.226818,
   1.198799,
   1.203199,
   1.226496,
   1.195434,
   1.186494,
   1.171046,
   1.155214,
   1.154993,
   1.159855,
   1.132154,
   1.126480,
   1.167349,
   1.170859,
   1.062261,
   0.932308,
   0.961666,
   1.085751,
   1.170013,
   1.192922,
   1.184102,
   1.169224,
   1.195281,
   1.233047,
   1.228164,
   1.214558,
   1.201781,
   1.222412,
   1.239538,
   1.206036,
   1.166076,
   1.169596,
   1.183084,
   1.194073,
   1.181574,
   1.161729,
   1.187940,
   1.227211,
   1.228987,
   1.206765,
   1.154364,
   1.140734,
   1.156259,
   1.169790,
   1.173826,
   1.170701,
   1.173563,
   1.166844,
   1.176516,
   1.156519,
   1.156638,
   1.172090,
   1.140520,
   1.096190,
   1.058235,
   0.997134,
   0.967530,
   0.992290,
   1.094550,
   1.172268,
   1.145006,
   1.103131,
   1.012128,
   0.903763,
   0.965993,
   1.081956,
   1.151366,
   1.200661,
   1.224896,
   1.216401,
   1.199512,
   1.174539,
   1.133463,
   1.152557,
   1.181062,
   1.193332,
   1.199476,
   1.206785,
   1.214870,
   1.228659,
   1.237710,
   1.235377,
   1.221178,
   1.226948,
   1.230692,
   1.230476,
   1.192354,
   1.167230,
   1.185070,
   1.216035,
   1.246099,
   1.242561,
   1.240195,
   1.236809,
   1.243702,
   1.268313,
   1.299898,
   1.307137,
   1.287871,
   1.255433,
   1.209756,
   1.177388,
   1.196927,
   1.228826,
   1.210610,
   1.191463,
   1.214076,
   1.245227,
   1.251216,
   1.255291,
   1.250685,
   1.227595,
   1.202874,
   1.207116,
   1.211383,
   1.210575,
   1.222703,
   1.238730,
   1.241030,
   1.239416,
   1.236116,
   1.234883,
   1.225968,
   1.214866,
   1.202958,
   1.197584,
   1.211423,
   1.222890,
   1.187641,
   1.168436,
   1.200529,
   1.214401,
   1.213929,
   1.212420,
   1.211373,
   1.188728,
   1.171810,
   1.174437,
   1.200383,
   1.216593,
   1.208554,
   1.191308,
   1.189241,
   1.198036,
   1.207943,
   1.200386,
   1.186368,
   1.175914,
   1.163322,
   1.171970,
   1.201330,
   1.202176,
   1.185344,
   1.181152,
   1.193349,
   1.191732,
   1.186853,
   1.182688,
   1.193564,
   1.197540,
   1.179901,
   1.168069,
   1.161689,
   1.150988,
   1.145232,
   1.102668,
   0.981724,
   0.864855,
   0.895097,
   1.004193,
   1.067796,
   1.105214,
   1.099609,
   1.097041,
   1.133743,
   1.161891,
   1.161595,
   1.139251,
   1.115079,
   1.095900,
   1.119222,
   1.146992,
   1.133052,
   1.124193,
   1.149267,
   1.163214,
   1.146130,
   1.138268,
   1.150253,
   1.146948,
   1.137645,
   1.112885,
   1.104902,
   1.126205,
   1.128625,
   1.117772,
   1.102514,
   1.087883,
   1.066966,
   1.069639,
   1.098122,
   1.115463,
   1.100717,
   1.079789,
   1.093468,
   1.115412,
   1.133765,
   1.145188,
   1.125309,
   1.103326,
   1.085480,
   1.076742,
   1.099405,
   1.126109,
   1.112628,
   1.091066,
   1.096332,
   1.105267,
   1.119707,
   1.112858,
   1.089169,
   1.074690,
   1.066446,
   1.056038,
   1.059491,
   1.071526,
   1.085505,
   1.077257,
   1.001152,
   0.947416,
   0.992948,
   1.033030,
   1.015507,
   1.015209,
   1.033264,
   1.047670,
   1.046914,
   1.052512,
   1.061715,
   1.060778,
   1.033451,
   1.022149,
   1.043838,
   1.068327,
   1.074704,
   1.067069,
   1.068170,
   1.045399,
   0.992068,
   0.975338,
   0.998838,
   1.032983,
   1.060217,
   1.078274,
   1.059753,
   1.048312,
   1.065503,
   1.077972,
   1.068291,
   1.043773,
   1.021217,
   1.013698,
   1.028664,
   1.033344,
   1.035524,
   1.045197,
   1.067440,
   1.067879,
   1.034220,
   1.019625,
   1.036515,
   1.045791,
   1.042312,
   1.035238,
   1.022308,
   1.007491,
   0.998877,
   1.002793,
   1.019041,
   1.028672,
   1.026103,
   1.023279,
   1.028672,
   1.043501,
   1.035328,
   1.026973,
   1.022695,
   1.023777,
   1.025596,
   1.028873,
   1.013926,
   1.002905,
   1.015497,
   1.021717,
   1.023109,
   1.020901,
   1.008549,
   1.008972,
   1.023751,
   1.030733,
   1.014113,
   0.998506,
   1.004101,
   1.016529,
   1.019841,
   1.022586,
   1.015893,
   1.006571,
   0.994748,
   0.988329,
   0.999208,
   1.001326,
   0.983428,
   0.962629,
   0.959647,
   0.965510,
   0.987418,
   1.005109,
   0.988534,
   0.979242,
   0.987903,
   0.997155,
   0.991929,
   0.981991,
   0.985088,
   0.987506,
   0.967382,
   0.951726,
   0.963817,
   0.983002,
   0.986802,
   0.973931,
   0.961061,
   0.965603,
   0.972246,
   0.967965,
   0.949234,
   0.937152,
   0.953645,
   0.974452,
   0.981604,
   0.978941,
   0.978892,
   0.981213,
   0.974060,
   0.964159,
   0.958677,
   0.961623,
   0.969420,
   0.973075,
   0.966889,
   0.954566,
   0.950065,
   0.954606,
   0.954843,
   0.959656,
   0.961491,
   0.961603,
   0.962276,
   0.967359,
   0.973909,
   0.972483,
   0.968035,
   0.966535,
   0.962904,
   0.953343,
   0.935609,
   0.933667,
   0.947010,
   0.960494,
   0.959584,
   0.947925,
   0.920667,
   0.886029,
   0.884943,
   0.913959,
   0.937580,
   0.941679,
   0.940496,
   0.940290,
   0.937288,
   0.932986,
   0.934608,
   0.934992,
   0.928592,
   0.922630,
   0.925154,
   0.928878,
   0.930875,
   0.930100,
   0.921899,
   0.917048,
   0.911835,
   0.914433,
   0.915996,
   0.912788,
   0.901273,
   0.898733,
   0.895045,
   0.887065,
   0.890948,
   0.899346,
   0.904632,
   0.902457,
   0.902633,
   0.897883,
   0.897338,
   0.897485,
   0.894633,
   0.895420,
   0.891521,
   0.885755,
   0.884915,
   0.883901,
   0.878882,
   0.871714,
   0.873274,
   0.883775,
   0.880767,
   0.871124,
   0.870129,
   0.869508,
   0.855174,
   0.851898,
   0.858883,
   0.860712,
   0.852081,
   0.839417,
   0.835939,
   0.845707,
   0.857739,
   0.864546,
   0.860102,
   0.855762,
   0.860358,
   0.863883,
   0.867858,
   0.866233,
   0.858086,
   0.852208,
   0.852857,
   0.845998,
   0.842387,
   0.839404,
   0.833854,
   0.831161,
   0.830253,
   0.836670,
   0.841277,
   0.842823,
   0.830595,
   0.816879,
   0.830044,
   0.834660,
   0.825536,
   0.822797,
   0.824387,
   0.827956,
   0.820041,
   0.818221,
   0.828337,
   0.832706,
   0.823877,
   0.821225,
   0.825456,
   0.829857,
   0.826430,
   0.817295,
   0.819218,
   0.822543,
   0.824418,
   0.824301,
   0.824503,
   0.820698,
   0.816251,
   0.812926,
   0.812859,
   0.808509,
   0.805102,
   0.802979,
   0.811046,
   0.810211,
   0.807951,
   0.808550,
   0.810242,
   0.805961,
   0.800781,
   0.794955,
   0.795965,
   0.800257,
   0.799927,
   0.800298,
   0.797096,
   0.782584,
   0.765651,
   0.780877,
   0.797474,
   0.803563,
   0.793448,
   0.791180,
   0.791964,
   0.790253,
   0.788628,
   0.785019,
   0.771565,
   0.746346,
   0.688172,
   0.603662,
   0.610674,
   0.700158,
   0.744354,
   0.762742,
   0.765921,
   0.765783,
   0.769179,
   0.779156,
   0.780656,
   0.780703,
   0.783676,
   0.782536,
   0.780573,
   0.774320,
   0.770613,
   0.773931,
   0.775787,
   0.776722,
   0.774359,
   0.767994,
   0.764867,
   0.769247,
   0.765635,
   0.765371,
   0.769488,
   0.768172,
   0.765097,
   0.763520,
   0.761093,
   0.758357,
   0.751246,
   0.749380,
   0.753935,
   0.754531,
   0.753270,
   0.751510,
   0.750834,
   0.749235,
   0.747683,
   0.748591,
   0.749199,
   0.747406,
   0.748375,
   0.747473,
   0.744650,
   0.744058,
   0.742195,
   0.745951,
   0.744462,
   0.745675,
   0.745620,
   0.743498,
   0.741928,
   0.741205,
   0.738073,
   0.737213,
   0.736401,
   0.735604,
   0.734814,
   0.733980,
   0.733165,
   0.732305,
   0.731467,
   0.730652,
   0.729828,
   0.728967,
   0.728126,
   0.727311,
   0.726494,
   0.725672,
   0.724891,
   0.724100,
   0.723249,
   0.722375,
   0.721498,
   0.720679,
   0.719899,
   0.719050,
   0.718242,
   0.717407,
   0.716552,
   0.715850,
   0.713692,
   0.710461,
   0.712771,
   0.713298,
   0.713184,
   0.707295,
   0.701603,
   0.703323,
   0.700094,
   0.699464,
   0.700620,
   0.704314,
   0.703029,
   0.704708,
   0.709181,
   0.707916,
   0.704345,
   0.702373,
   0.702679,
   0.701698,
   0.702488,
   0.700814,
   0.696933,
   0.693852,
   0.695187,
   0.697100,
   0.695464,
   0.691610,
   0.688440,
   0.686783,
   0.686732,
   0.686440,
   0.689060,
   0.690915,
   0.685040,
   0.680743,
   0.682784,
   0.681084,
   0.672150,
   0.667764,
   0.660931,
   0.653809,
   0.642181,
   0.641487,
   0.645921,
   0.647170,
   0.650051,
   0.659390,
   0.665492,
   0.665881,
   0.665060,
   0.662068,
   0.653858,
   0.651529,
   0.651641,
   0.653034,
   0.654569,
   0.656474,
   0.654351,
   0.655719,
   0.648505,
   0.646516,
   0.641319,
   0.635475,
   0.646046,
   0.650795,
   0.645656,
   0.643726,
   0.647852,
   0.650038,
   0.648332,
   0.647326,
   0.651741,
   0.655900,
   0.653285,
   0.647702,
   0.644977,
   0.646419,
   0.646831,
   0.647367,
   0.647294,
   0.645899,
   0.635519,
   0.631583,
   0.639457,
   0.640701,
   0.636358,
   0.628236,
   0.626346,
   0.629442,
   0.633428,
   0.640964,
   0.641345,
   0.637305,
   0.631035,
   0.632440,
   0.636213,
   0.634589,
   0.634996,
   0.637651,
   0.634679,
   0.632522,
   0.631746,
   0.629775,
   0.625373,
   0.628364,
   0.626736,
   0.619358,
   0.622714,
   0.625021,
   0.622317,
   0.621368,
   0.622706,
   0.626523,
   0.624271,
   0.621632,
   0.620848,
   0.620027,
   0.619246,
   0.618445,
   0.617594,
   0.616817,
   0.616024,
   0.615226,
   0.614424,
   0.613648,
   0.612896,
   0.612114,
   0.611329,
   0.610545,
   0.609760,
   0.608976,
   0.608191,
   0.607406,
   0.606620,
   0.605833,
   0.605045,
   0.604257,
   0.603469,
   0.602657,
   0.601818,
   0.601011,
   0.600253,
   0.599497,
   0.598676,
   0.597835,
   0.596997,
   0.596234,
   0.595548,
   0.594791,
   0.593901,
   0.593898,
   0.596941,
   0.594396,
   0.587054,
   0.583955,
   0.589364,
   0.592604,
   0.591838,
   0.584206,
   0.575453,
   0.576513,
   0.582944,
   0.586199,
   0.583469,
   0.580529,
   0.581077,
   0.580617,
   0.583619,
   0.584657,
   0.583146,
   0.577025,
   0.573350,
   0.577383,
   0.578790,
   0.576874,
   0.577307,
   0.578978,
   0.577323,
   0.576556,
   0.573683,
   0.572147,
   0.574089,
   0.573428,
   0.570364,
   0.568789,
   0.572581,
   0.572293,
   0.568194,
   0.564325,
   0.563488,
   0.559302,
   0.557692,
   0.558525,
   0.555545,
   0.560210,
   0.563291,
   0.563017,
   0.564275,
   0.564453,
   0.564013,
   0.563125,
   0.564270,
   0.562738,
   0.557657,
   0.551443,
   0.553555,
   0.554804,
   0.555941,
   0.556058,
   0.552010,
   0.548888,
   0.552243,
   0.554379,
   0.547547,
   0.544851,
   0.549701,
   0.552482,
   0.552304,
   0.550983,
   0.550362,
   0.549839,
   0.546777,
   0.546019,
   0.543949,
   0.543198,
   0.547309,
   0.547798,
   0.546580,
   0.546441,
   0.545369,
   0.542335,
   0.539389,
   0.537845,
   0.533896,
   0.531466,
   0.530195,
   0.525756,
   0.522136,
   0.524074,
   0.523032,
   0.519727,
   0.523157,
   0.522390,
   0.515090,
   0.517736,
   0.531387,
   0.534625,
   0.529821,
   0.523078,
   0.510045,
   0.499015,
   0.515094,
   0.527611,
   0.527001,
   0.526204,
   0.521815,
   0.524697,
   0.526128,
   0.526126,
   0.518967,
   0.515371,
   0.515901,
   0.515205,
   0.515715,
   0.516430,
   0.514026,
   0.514714,
   0.514853,
   0.512538,
   0.513213,
   0.509243,
   0.504980,
   0.504645,
   0.508974,
   0.512141,
   0.512996,
   0.512340,
   0.512094,
   0.512774,
   0.512096,
   0.511653,
   0.508063,
   0.505788,
   0.507639,
   0.508624,
   0.507570,
   0.507666,
   0.507889,
   0.506206,
   0.506495,
   0.504381,
   0.500374,
   0.497885,
   0.495739,
   0.498103,
   0.503196,
   0.504473,
   0.498894,
   0.494352,
   0.495260,
   0.499914,
   0.501726,
   0.495836,
   0.469704,
   0.448038,
   0.473951,
   0.487552,
   0.484166,
   0.484584,
   0.483270,
   0.479277,
   0.461614,
   0.418140,
   0.398196,
   0.430915,
   0.455092,
   0.473624,
   0.480487,
   0.477994,
   0.476179,
   0.474680,
   0.472839,
   0.469335,
   0.462732,
   0.467756,
   0.472103,
   0.470497,
   0.471506,
   0.473416,
   0.476061,
   0.477246,
   0.476168,
   0.475131,
   0.471145,
   0.464244,
   0.450524,
   0.409078,
   0.398135,
   0.438551,
   0.455534,
   0.461380,
   0.463368,
   0.462884,
   0.469054,
   0.471035,
   0.473875,
   0.470466,
   0.468597,
   0.469800,
   0.466958,
   0.460472,
   0.457218,
   0.452253,
   0.450451,
   0.445091,
   0.448877,
   0.456453,
   0.459597,
   0.459642,
   0.459237,
   0.461457,
   0.458694,
   0.455620,
   0.454079,
   0.457246,
   0.449277,
   0.447428,
   0.457180,
   0.459217,
   0.456691,
   0.455012,
   0.452359,
   0.449015,
   0.448612,
   0.447731,
   0.440693,
   0.430571,
   0.427044,
   0.435270,
   0.442801,
   0.446071,
   0.449568,
   0.450605,
   0.449635,
   0.450049,
   0.453310,
   0.449516,
   0.446704,
   0.451096,
   0.442860,
   0.445583,
   0.451740,
   0.452855,
   0.450671,
   0.445558,
   0.444238,
   0.443659,
   0.441629,
   0.438190,
   0.438670,
   0.436989,
   0.426234,
   0.410710,
   0.430382,
   0.418283,
   0.413857,
   0.407257,
   0.397726,
   0.406375,
   0.418697,
   0.439352,
   0.455112,
   0.456274,
   0.452006,
   0.455043,
   0.452234,
   0.437861,
   0.428764,
   0.425376,
   0.422963,
   0.415866,
   0.414834,
   0.408151,
   0.413060,
   0.418811,
   0.422206,
   0.423616,
   0.422469,
   0.423904,
   0.429307,
   0.417843,
   0.410525,
   0.424896,
   0.430073,
   0.416410,
   0.407340,
   0.417544,
   0.424560,
   0.419864,
   0.408386,
   0.418527,
   0.425584,
   0.428399,
   0.420615,
   0.424293,
   0.421466,
   0.415585,
   0.409062,
   0.403933,
   0.399696,
   0.395988,
   0.401072,
   0.406246,
   0.407064,
   0.406259,
   0.406593,
   0.407395,
   0.414612,
   0.418908,
   0.423536,
   0.423197,
   0.422166,
   0.422188,
   0.418357,
   0.408883,
   0.399729,
   0.395738,
   0.390113,
   0.390249,
   0.392459,
   0.401202,
   0.399232,
   0.393641,
   0.389400,
   0.393632,
   0.379005,
   0.377838,
   0.382143,
   0.381385,
   0.390032,
   0.397951,
   0.417474,
   0.427904,
   0.433475,
   0.426441,
   0.417745,
   0.402706,
   0.391478,
   0.385262,
   0.367953,
   0.363063,
   0.374470,
   0.365814,
   0.379074,
   0.392445,
   0.391734,
   0.390863,
   0.396220,
   0.395256,
   0.392334,
   0.379616,
   0.388082,
   0.382024,
   0.374462,
   0.376850,
   0.392122,
   0.398262,
   0.389672,
   0.380418,
   0.386504,
   0.382716,
   0.380466,
   0.370914,
   0.362656,
   0.371004,
   0.375687,
   0.383180,
   0.384846,
   0.387886,
   0.390528,
   0.384527,
   0.378905,
   0.376639,
   0.377255,
   0.377272,
   0.371521,
   0.372290,
   0.365671,
   0.375235,
   0.365863,
   0.372464,
   0.371417,
   0.367904,
   0.365537,
   0.369684,
   0.369825,
   0.370393,
   0.369384,
   0.375377,
   0.369685,
   0.375044,
   0.377865,
   0.375248,
   0.380567,
   0.374947,
   0.368990,
   0.372404,
   0.369475,
   0.367925,
   0.363195,
   0.361277,
   0.354634,
   0.361127,
   0.363238,
   0.361250,
   0.355830,
   0.364792,
   0.369963,
   0.355280,
   0.356891,
   0.357562,
   0.365166,
   0.364596,
   0.358196,
   0.362713,
   0.365894,
   0.370426,
   0.364501,
   0.357235,
   0.355735,
   0.355360,
   0.356222,
   0.356277,
   0.360734,
   0.362415,
   0.361894,
   0.358721,
   0.357939,
   0.353593,
   0.362133,
   0.347442,
   0.352187,
   0.354504,
   0.343059,
   0.344726,
   0.360623,
   0.353024,
   0.357281,
   0.342061,
   0.350687,
   0.335899,
   0.341946,
   0.339078,
   0.342886,
   0.342942,
   0.346888,
   0.351422,
   0.347973,
   0.346860,
   0.350177,
   0.353051,
   0.338836,
   0.345272,
   0.350909,
   0.353368,
   0.344441,
   0.341897,
   0.344051,
   0.339811,
   0.336789,
   0.338050,
   0.335300,
   0.323517,
   0.314468,
   0.315889,
   0.312347,
   0.330825,
   0.330604,
   0.318109,
   0.334810,
   0.340703,
   0.337866,
   0.337471,
   0.325961,
   0.341317,
   0.329615,
   0.327947,
   0.321235,
   0.345311,
   0.329639,
   0.335003,
   0.331299,
   0.319113,
   0.332695,
   0.337554,
   0.335374,
   0.343774,
   0.332727,
   0.328775,
   0.319681,
   0.320527,
   0.320575,
   0.317846,
   0.313692,
   0.303152,
   0.329583,
   0.337257,
   0.329573,
   0.320267,
   0.320519,
   0.320338,
   0.319800,
   0.318977,
   0.317974,
   0.317006,
   0.316319,
   0.316158,
   0.316654,
   0.317479,
   0.318190,
   0.318345,
   0.317679,
   0.316635,
   0.315834,
   0.315895,
   0.317215,
   0.319293,
   0.321407,
   0.322830,
   0.323049,
   0.322385,
   0.321368,
   0.320528,
   0.320263,
   0.320427,
   0.320742,
   0.320928,
   0.320737,
   0.320035,
   0.318721,
   0.316691,
   0.313952,
   0.310958,
   0.308269,
   0.306448,
   0.305881,
   0.306252,
   0.307066,
   0.307831,
   0.308123,
   0.307796,
   0.306770,
   0.304970,
   0.302444,
   0.299755,
   0.297590,
   0.296638,
   0.297345,
   0.299185,
   0.301392,
   0.303197,
   0.303997,
   0.303850,
   0.302978,
   0.301604,
   0.300011,
   0.298716,
   0.298300,
   0.299341,
   0.302095,
   0.305532,
   0.308299,
   0.309045,
   0.306883,
   0.302799,
   0.298245,
   0.294675,
   0.293180,
   0.293415,
   0.294675,
   0.296254,
   0.297575,
   0.298572,
   0.299307,
   0.299841,
   0.300233,
   0.300521,
   0.300739,
   0.300923
};

#endif
