#ifndef _F8V_H_
#define _F8V_H_

/* spectrum for f8v star           */
/* number of elements = 1895       */

static double _f8v_lambda[] = {
   1150.000000,
   1155.000000,
   1160.000000,
   1165.000000,
   1170.000000,
   1175.000000,
   1180.000000,
   1185.000000,
   1190.000000,
   1195.000000,
   1200.000000,
   1205.000000,
   1210.000000,
   1215.000000,
   1220.000000,
   1225.000000,
   1230.000000,
   1235.000000,
   1240.000000,
   1245.000000,
   1250.000000,
   1255.000000,
   1260.000000,
   1265.000000,
   1270.000000,
   1275.000000,
   1280.000000,
   1285.000000,
   1290.000000,
   1295.000000,
   1300.000000,
   1305.000000,
   1310.000000,
   1315.000000,
   1320.000000,
   1325.000000,
   1330.000000,
   1335.000000,
   1340.000000,
   1345.000000,
   1350.000000,
   1355.000000,
   1360.000000,
   1365.000000,
   1370.000000,
   1375.000000,
   1380.000000,
   1385.000000,
   1390.000000,
   1395.000000,
   1400.000000,
   1405.000000,
   1410.000000,
   1415.000000,
   1420.000000,
   1425.000000,
   1430.000000,
   1435.000000,
   1440.000000,
   1445.000000,
   1450.000000,
   1455.000000,
   1460.000000,
   1465.000000,
   1470.000000,
   1475.000000,
   1480.000000,
   1485.000000,
   1490.000000,
   1495.000000,
   1500.000000,
   1505.000000,
   1510.000000,
   1515.000000,
   1520.000000,
   1525.000000,
   1530.000000,
   1535.000000,
   1540.000000,
   1545.000000,
   1550.000000,
   1555.000000,
   1560.000000,
   1565.000000,
   1570.000000,
   1575.000000,
   1580.000000,
   1585.000000,
   1590.000000,
   1595.000000,
   1600.000000,
   1605.000000,
   1610.000000,
   1615.000000,
   1620.000000,
   1625.000000,
   1630.000000,
   1635.000000,
   1640.000000,
   1645.000000,
   1650.000000,
   1655.000000,
   1660.000000,
   1665.000000,
   1670.000000,
   1675.000000,
   1680.000000,
   1685.000000,
   1690.000000,
   1695.000000,
   1700.000000,
   1705.000000,
   1710.000000,
   1715.000000,
   1720.000000,
   1725.000000,
   1730.000000,
   1735.000000,
   1740.000000,
   1745.000000,
   1750.000000,
   1755.000000,
   1760.000000,
   1765.000000,
   1770.000000,
   1775.000000,
   1780.000000,
   1785.000000,
   1790.000000,
   1795.000000,
   1800.000000,
   1805.000000,
   1810.000000,
   1815.000000,
   1820.000000,
   1825.000000,
   1830.000000,
   1835.000000,
   1840.000000,
   1845.000000,
   1850.000000,
   1855.000000,
   1860.000000,
   1865.000000,
   1870.000000,
   1875.000000,
   1880.000000,
   1885.000000,
   1890.000000,
   1895.000000,
   1900.000000,
   1905.000000,
   1910.000000,
   1915.000000,
   1920.000000,
   1925.000000,
   1930.000000,
   1935.000000,
   1940.000000,
   1945.000000,
   1950.000000,
   1955.000000,
   1960.000000,
   1965.000000,
   1970.000000,
   1975.000000,
   1980.000000,
   1985.000000,
   1990.000000,
   1995.000000,
   2000.000000,
   2005.000000,
   2010.000000,
   2015.000000,
   2020.000000,
   2025.000000,
   2030.000000,
   2035.000000,
   2040.000000,
   2045.000000,
   2050.000000,
   2055.000000,
   2060.000000,
   2065.000000,
   2070.000000,
   2075.000000,
   2080.000000,
   2085.000000,
   2090.000000,
   2095.000000,
   2100.000000,
   2105.000000,
   2110.000000,
   2115.000000,
   2120.000000,
   2125.000000,
   2130.000000,
   2135.000000,
   2140.000000,
   2145.000000,
   2150.000000,
   2155.000000,
   2160.000000,
   2165.000000,
   2170.000000,
   2175.000000,
   2180.000000,
   2185.000000,
   2190.000000,
   2195.000000,
   2200.000000,
   2205.000000,
   2210.000000,
   2215.000000,
   2220.000000,
   2225.000000,
   2230.000000,
   2235.000000,
   2240.000000,
   2245.000000,
   2250.000000,
   2255.000000,
   2260.000000,
   2265.000000,
   2270.000000,
   2275.000000,
   2280.000000,
   2285.000000,
   2290.000000,
   2295.000000,
   2300.000000,
   2305.000000,
   2310.000000,
   2315.000000,
   2320.000000,
   2325.000000,
   2330.000000,
   2335.000000,
   2340.000000,
   2345.000000,
   2350.000000,
   2355.000000,
   2360.000000,
   2365.000000,
   2370.000000,
   2375.000000,
   2380.000000,
   2385.000000,
   2390.000000,
   2395.000000,
   2400.000000,
   2405.000000,
   2410.000000,
   2415.000000,
   2420.000000,
   2425.000000,
   2430.000000,
   2435.000000,
   2440.000000,
   2445.000000,
   2450.000000,
   2455.000000,
   2460.000000,
   2465.000000,
   2470.000000,
   2475.000000,
   2480.000000,
   2485.000000,
   2490.000000,
   2495.000000,
   2500.000000,
   2505.000000,
   2510.000000,
   2515.000000,
   2520.000000,
   2525.000000,
   2530.000000,
   2535.000000,
   2540.000000,
   2545.000000,
   2550.000000,
   2555.000000,
   2560.000000,
   2565.000000,
   2570.000000,
   2575.000000,
   2580.000000,
   2585.000000,
   2590.000000,
   2595.000000,
   2600.000000,
   2605.000000,
   2610.000000,
   2615.000000,
   2620.000000,
   2625.000000,
   2630.000000,
   2635.000000,
   2640.000000,
   2645.000000,
   2650.000000,
   2655.000000,
   2660.000000,
   2665.000000,
   2670.000000,
   2675.000000,
   2680.000000,
   2685.000000,
   2690.000000,
   2695.000000,
   2700.000000,
   2705.000000,
   2710.000000,
   2715.000000,
   2720.000000,
   2725.000000,
   2730.000000,
   2735.000000,
   2740.000000,
   2745.000000,
   2750.000000,
   2755.000000,
   2760.000000,
   2765.000000,
   2770.000000,
   2775.000000,
   2780.000000,
   2785.000000,
   2790.000000,
   2795.000000,
   2800.000000,
   2805.000000,
   2810.000000,
   2815.000000,
   2820.000000,
   2825.000000,
   2830.000000,
   2835.000000,
   2840.000000,
   2845.000000,
   2850.000000,
   2855.000000,
   2860.000000,
   2865.000000,
   2870.000000,
   2875.000000,
   2880.000000,
   2885.000000,
   2890.000000,
   2895.000000,
   2900.000000,
   2905.000000,
   2910.000000,
   2915.000000,
   2920.000000,
   2925.000000,
   2930.000000,
   2935.000000,
   2940.000000,
   2945.000000,
   2950.000000,
   2955.000000,
   2960.000000,
   2965.000000,
   2970.000000,
   2975.000000,
   2980.000000,
   2985.000000,
   2990.000000,
   2995.000000,
   3000.000000,
   3005.000000,
   3010.000000,
   3015.000000,
   3020.000000,
   3025.000000,
   3030.000000,
   3035.000000,
   3040.000000,
   3045.000000,
   3050.000000,
   3055.000000,
   3060.000000,
   3065.000000,
   3070.000000,
   3075.000000,
   3080.000000,
   3085.000000,
   3090.000000,
   3095.000000,
   3100.000000,
   3105.000000,
   3110.000000,
   3115.000000,
   3120.000000,
   3125.000000,
   3130.000000,
   3135.000000,
   3140.000000,
   3145.000000,
   3150.000000,
   3155.000000,
   3160.000000,
   3165.000000,
   3170.000000,
   3175.000000,
   3180.000000,
   3185.000000,
   3190.000000,
   3195.000000,
   3200.000000,
   3205.000000,
   3210.000000,
   3215.000000,
   3220.000000,
   3225.000000,
   3230.000000,
   3235.000000,
   3240.000000,
   3245.000000,
   3250.000000,
   3255.000000,
   3260.000000,
   3265.000000,
   3270.000000,
   3275.000000,
   3280.000000,
   3285.000000,
   3290.000000,
   3295.000000,
   3300.000000,
   3305.000000,
   3310.000000,
   3315.000000,
   3320.000000,
   3325.000000,
   3330.000000,
   3335.000000,
   3340.000000,
   3345.000000,
   3350.000000,
   3355.000000,
   3360.000000,
   3365.000000,
   3370.000000,
   3375.000000,
   3380.000000,
   3385.000000,
   3390.000000,
   3395.000000,
   3400.000000,
   3405.000000,
   3410.000000,
   3415.000000,
   3420.000000,
   3425.000000,
   3430.000000,
   3435.000000,
   3440.000000,
   3445.000000,
   3450.000000,
   3455.000000,
   3460.000000,
   3465.000000,
   3470.000000,
   3475.000000,
   3480.000000,
   3485.000000,
   3490.000000,
   3495.000000,
   3500.000000,
   3505.000000,
   3510.000000,
   3515.000000,
   3520.000000,
   3525.000000,
   3530.000000,
   3535.000000,
   3540.000000,
   3545.000000,
   3550.000000,
   3555.000000,
   3560.000000,
   3565.000000,
   3570.000000,
   3575.000000,
   3580.000000,
   3585.000000,
   3590.000000,
   3595.000000,
   3600.000000,
   3605.000000,
   3610.000000,
   3615.000000,
   3620.000000,
   3625.000000,
   3630.000000,
   3635.000000,
   3640.000000,
   3645.000000,
   3650.000000,
   3655.000000,
   3660.000000,
   3665.000000,
   3670.000000,
   3675.000000,
   3680.000000,
   3685.000000,
   3690.000000,
   3695.000000,
   3700.000000,
   3705.000000,
   3710.000000,
   3715.000000,
   3720.000000,
   3725.000000,
   3730.000000,
   3735.000000,
   3740.000000,
   3745.000000,
   3750.000000,
   3755.000000,
   3760.000000,
   3765.000000,
   3770.000000,
   3775.000000,
   3780.000000,
   3785.000000,
   3790.000000,
   3795.000000,
   3800.000000,
   3805.000000,
   3810.000000,
   3815.000000,
   3820.000000,
   3825.000000,
   3830.000000,
   3835.000000,
   3840.000000,
   3845.000000,
   3850.000000,
   3855.000000,
   3860.000000,
   3865.000000,
   3870.000000,
   3875.000000,
   3880.000000,
   3885.000000,
   3890.000000,
   3895.000000,
   3900.000000,
   3905.000000,
   3910.000000,
   3915.000000,
   3920.000000,
   3925.000000,
   3930.000000,
   3935.000000,
   3940.000000,
   3945.000000,
   3950.000000,
   3955.000000,
   3960.000000,
   3965.000000,
   3970.000000,
   3975.000000,
   3980.000000,
   3985.000000,
   3990.000000,
   3995.000000,
   4000.000000,
   4005.000000,
   4010.000000,
   4015.000000,
   4020.000000,
   4025.000000,
   4030.000000,
   4035.000000,
   4040.000000,
   4045.000000,
   4050.000000,
   4055.000000,
   4060.000000,
   4065.000000,
   4070.000000,
   4075.000000,
   4080.000000,
   4085.000000,
   4090.000000,
   4095.000000,
   4100.000000,
   4105.000000,
   4110.000000,
   4115.000000,
   4120.000000,
   4125.000000,
   4130.000000,
   4135.000000,
   4140.000000,
   4145.000000,
   4150.000000,
   4155.000000,
   4160.000000,
   4165.000000,
   4170.000000,
   4175.000000,
   4180.000000,
   4185.000000,
   4190.000000,
   4195.000000,
   4200.000000,
   4205.000000,
   4210.000000,
   4215.000000,
   4220.000000,
   4225.000000,
   4230.000000,
   4235.000000,
   4240.000000,
   4245.000000,
   4250.000000,
   4255.000000,
   4260.000000,
   4265.000000,
   4270.000000,
   4275.000000,
   4280.000000,
   4285.000000,
   4290.000000,
   4295.000000,
   4300.000000,
   4305.000000,
   4310.000000,
   4315.000000,
   4320.000000,
   4325.000000,
   4330.000000,
   4335.000000,
   4340.000000,
   4345.000000,
   4350.000000,
   4355.000000,
   4360.000000,
   4365.000000,
   4370.000000,
   4375.000000,
   4380.000000,
   4385.000000,
   4390.000000,
   4395.000000,
   4400.000000,
   4405.000000,
   4410.000000,
   4415.000000,
   4420.000000,
   4425.000000,
   4430.000000,
   4435.000000,
   4440.000000,
   4445.000000,
   4450.000000,
   4455.000000,
   4460.000000,
   4465.000000,
   4470.000000,
   4475.000000,
   4480.000000,
   4485.000000,
   4490.000000,
   4495.000000,
   4500.000000,
   4505.000000,
   4510.000000,
   4515.000000,
   4520.000000,
   4525.000000,
   4530.000000,
   4535.000000,
   4540.000000,
   4545.000000,
   4550.000000,
   4555.000000,
   4560.000000,
   4565.000000,
   4570.000000,
   4575.000000,
   4580.000000,
   4585.000000,
   4590.000000,
   4595.000000,
   4600.000000,
   4605.000000,
   4610.000000,
   4615.000000,
   4620.000000,
   4625.000000,
   4630.000000,
   4635.000000,
   4640.000000,
   4645.000000,
   4650.000000,
   4655.000000,
   4660.000000,
   4665.000000,
   4670.000000,
   4675.000000,
   4680.000000,
   4685.000000,
   4690.000000,
   4695.000000,
   4700.000000,
   4705.000000,
   4710.000000,
   4715.000000,
   4720.000000,
   4725.000000,
   4730.000000,
   4735.000000,
   4740.000000,
   4745.000000,
   4750.000000,
   4755.000000,
   4760.000000,
   4765.000000,
   4770.000000,
   4775.000000,
   4780.000000,
   4785.000000,
   4790.000000,
   4795.000000,
   4800.000000,
   4805.000000,
   4810.000000,
   4815.000000,
   4820.000000,
   4825.000000,
   4830.000000,
   4835.000000,
   4840.000000,
   4845.000000,
   4850.000000,
   4855.000000,
   4860.000000,
   4865.000000,
   4870.000000,
   4875.000000,
   4880.000000,
   4885.000000,
   4890.000000,
   4895.000000,
   4900.000000,
   4905.000000,
   4910.000000,
   4915.000000,
   4920.000000,
   4925.000000,
   4930.000000,
   4935.000000,
   4940.000000,
   4945.000000,
   4950.000000,
   4955.000000,
   4960.000000,
   4965.000000,
   4970.000000,
   4975.000000,
   4980.000000,
   4985.000000,
   4990.000000,
   4995.000000,
   5000.000000,
   5005.000000,
   5010.000000,
   5015.000000,
   5020.000000,
   5025.000000,
   5030.000000,
   5035.000000,
   5040.000000,
   5045.000000,
   5050.000000,
   5055.000000,
   5060.000000,
   5065.000000,
   5070.000000,
   5075.000000,
   5080.000000,
   5085.000000,
   5090.000000,
   5095.000000,
   5100.000000,
   5105.000000,
   5110.000000,
   5115.000000,
   5120.000000,
   5125.000000,
   5130.000000,
   5135.000000,
   5140.000000,
   5145.000000,
   5150.000000,
   5155.000000,
   5160.000000,
   5165.000000,
   5170.000000,
   5175.000000,
   5180.000000,
   5185.000000,
   5190.000000,
   5195.000000,
   5200.000000,
   5205.000000,
   5210.000000,
   5215.000000,
   5220.000000,
   5225.000000,
   5230.000000,
   5235.000000,
   5240.000000,
   5245.000000,
   5250.000000,
   5255.000000,
   5260.000000,
   5265.000000,
   5270.000000,
   5275.000000,
   5280.000000,
   5285.000000,
   5290.000000,
   5295.000000,
   5300.000000,
   5305.000000,
   5310.000000,
   5315.000000,
   5320.000000,
   5325.000000,
   5330.000000,
   5335.000000,
   5340.000000,
   5345.000000,
   5350.000000,
   5355.000000,
   5360.000000,
   5365.000000,
   5370.000000,
   5375.000000,
   5380.000000,
   5385.000000,
   5390.000000,
   5395.000000,
   5400.000000,
   5405.000000,
   5410.000000,
   5415.000000,
   5420.000000,
   5425.000000,
   5430.000000,
   5435.000000,
   5440.000000,
   5445.000000,
   5450.000000,
   5455.000000,
   5460.000000,
   5465.000000,
   5470.000000,
   5475.000000,
   5480.000000,
   5485.000000,
   5490.000000,
   5495.000000,
   5500.000000,
   5505.000000,
   5510.000000,
   5515.000000,
   5520.000000,
   5525.000000,
   5530.000000,
   5535.000000,
   5540.000000,
   5545.000000,
   5550.000000,
   5555.000000,
   5560.000000,
   5565.000000,
   5570.000000,
   5575.000000,
   5580.000000,
   5585.000000,
   5590.000000,
   5595.000000,
   5600.000000,
   5605.000000,
   5610.000000,
   5615.000000,
   5620.000000,
   5625.000000,
   5630.000000,
   5635.000000,
   5640.000000,
   5645.000000,
   5650.000000,
   5655.000000,
   5660.000000,
   5665.000000,
   5670.000000,
   5675.000000,
   5680.000000,
   5685.000000,
   5690.000000,
   5695.000000,
   5700.000000,
   5705.000000,
   5710.000000,
   5715.000000,
   5720.000000,
   5725.000000,
   5730.000000,
   5735.000000,
   5740.000000,
   5745.000000,
   5750.000000,
   5755.000000,
   5760.000000,
   5765.000000,
   5770.000000,
   5775.000000,
   5780.000000,
   5785.000000,
   5790.000000,
   5795.000000,
   5800.000000,
   5805.000000,
   5810.000000,
   5815.000000,
   5820.000000,
   5825.000000,
   5830.000000,
   5835.000000,
   5840.000000,
   5845.000000,
   5850.000000,
   5855.000000,
   5860.000000,
   5865.000000,
   5870.000000,
   5875.000000,
   5880.000000,
   5885.000000,
   5890.000000,
   5895.000000,
   5900.000000,
   5905.000000,
   5910.000000,
   5915.000000,
   5920.000000,
   5925.000000,
   5930.000000,
   5935.000000,
   5940.000000,
   5945.000000,
   5950.000000,
   5955.000000,
   5960.000000,
   5965.000000,
   5970.000000,
   5975.000000,
   5980.000000,
   5985.000000,
   5990.000000,
   5995.000000,
   6000.000000,
   6005.000000,
   6010.000000,
   6015.000000,
   6020.000000,
   6025.000000,
   6030.000000,
   6035.000000,
   6040.000000,
   6045.000000,
   6050.000000,
   6055.000000,
   6060.000000,
   6065.000000,
   6070.000000,
   6075.000000,
   6080.000000,
   6085.000000,
   6090.000000,
   6095.000000,
   6100.000000,
   6105.000000,
   6110.000000,
   6115.000000,
   6120.000000,
   6125.000000,
   6130.000000,
   6135.000000,
   6140.000000,
   6145.000000,
   6150.000000,
   6155.000000,
   6160.000000,
   6165.000000,
   6170.000000,
   6175.000000,
   6180.000000,
   6185.000000,
   6190.000000,
   6195.000000,
   6200.000000,
   6205.000000,
   6210.000000,
   6215.000000,
   6220.000000,
   6225.000000,
   6230.000000,
   6235.000000,
   6240.000000,
   6245.000000,
   6250.000000,
   6255.000000,
   6260.000000,
   6265.000000,
   6270.000000,
   6275.000000,
   6280.000000,
   6285.000000,
   6290.000000,
   6295.000000,
   6300.000000,
   6305.000000,
   6310.000000,
   6315.000000,
   6320.000000,
   6325.000000,
   6330.000000,
   6335.000000,
   6340.000000,
   6345.000000,
   6350.000000,
   6355.000000,
   6360.000000,
   6365.000000,
   6370.000000,
   6375.000000,
   6380.000000,
   6385.000000,
   6390.000000,
   6395.000000,
   6400.000000,
   6405.000000,
   6410.000000,
   6415.000000,
   6420.000000,
   6425.000000,
   6430.000000,
   6435.000000,
   6440.000000,
   6445.000000,
   6450.000000,
   6455.000000,
   6460.000000,
   6465.000000,
   6470.000000,
   6475.000000,
   6480.000000,
   6485.000000,
   6490.000000,
   6495.000000,
   6500.000000,
   6505.000000,
   6510.000000,
   6515.000000,
   6520.000000,
   6525.000000,
   6530.000000,
   6535.000000,
   6540.000000,
   6545.000000,
   6550.000000,
   6555.000000,
   6560.000000,
   6565.000000,
   6570.000000,
   6575.000000,
   6580.000000,
   6585.000000,
   6590.000000,
   6595.000000,
   6600.000000,
   6605.000000,
   6610.000000,
   6615.000000,
   6620.000000,
   6625.000000,
   6630.000000,
   6635.000000,
   6640.000000,
   6645.000000,
   6650.000000,
   6655.000000,
   6660.000000,
   6665.000000,
   6670.000000,
   6675.000000,
   6680.000000,
   6685.000000,
   6690.000000,
   6695.000000,
   6700.000000,
   6705.000000,
   6710.000000,
   6715.000000,
   6720.000000,
   6725.000000,
   6730.000000,
   6735.000000,
   6740.000000,
   6745.000000,
   6750.000000,
   6755.000000,
   6760.000000,
   6765.000000,
   6770.000000,
   6775.000000,
   6780.000000,
   6785.000000,
   6790.000000,
   6795.000000,
   6800.000000,
   6805.000000,
   6810.000000,
   6815.000000,
   6820.000000,
   6825.000000,
   6830.000000,
   6835.000000,
   6840.000000,
   6845.000000,
   6850.000000,
   6855.000000,
   6860.000000,
   6865.000000,
   6870.000000,
   6875.000000,
   6880.000000,
   6885.000000,
   6890.000000,
   6895.000000,
   6900.000000,
   6905.000000,
   6910.000000,
   6915.000000,
   6920.000000,
   6925.000000,
   6930.000000,
   6935.000000,
   6940.000000,
   6945.000000,
   6950.000000,
   6955.000000,
   6960.000000,
   6965.000000,
   6970.000000,
   6975.000000,
   6980.000000,
   6985.000000,
   6990.000000,
   6995.000000,
   7000.000000,
   7005.000000,
   7010.000000,
   7015.000000,
   7020.000000,
   7025.000000,
   7030.000000,
   7035.000000,
   7040.000000,
   7045.000000,
   7050.000000,
   7055.000000,
   7060.000000,
   7065.000000,
   7070.000000,
   7075.000000,
   7080.000000,
   7085.000000,
   7090.000000,
   7095.000000,
   7100.000000,
   7105.000000,
   7110.000000,
   7115.000000,
   7120.000000,
   7125.000000,
   7130.000000,
   7135.000000,
   7140.000000,
   7145.000000,
   7150.000000,
   7155.000000,
   7160.000000,
   7165.000000,
   7170.000000,
   7175.000000,
   7180.000000,
   7185.000000,
   7190.000000,
   7195.000000,
   7200.000000,
   7205.000000,
   7210.000000,
   7215.000000,
   7220.000000,
   7225.000000,
   7230.000000,
   7235.000000,
   7240.000000,
   7245.000000,
   7250.000000,
   7255.000000,
   7260.000000,
   7265.000000,
   7270.000000,
   7275.000000,
   7280.000000,
   7285.000000,
   7290.000000,
   7295.000000,
   7300.000000,
   7305.000000,
   7310.000000,
   7315.000000,
   7320.000000,
   7325.000000,
   7330.000000,
   7335.000000,
   7340.000000,
   7345.000000,
   7350.000000,
   7355.000000,
   7360.000000,
   7365.000000,
   7370.000000,
   7375.000000,
   7380.000000,
   7385.000000,
   7390.000000,
   7395.000000,
   7400.000000,
   7405.000000,
   7410.000000,
   7415.000000,
   7420.000000,
   7425.000000,
   7430.000000,
   7435.000000,
   7440.000000,
   7445.000000,
   7450.000000,
   7455.000000,
   7460.000000,
   7465.000000,
   7470.000000,
   7475.000000,
   7480.000000,
   7485.000000,
   7490.000000,
   7495.000000,
   7500.000000,
   7505.000000,
   7510.000000,
   7515.000000,
   7520.000000,
   7525.000000,
   7530.000000,
   7535.000000,
   7540.000000,
   7545.000000,
   7550.000000,
   7555.000000,
   7560.000000,
   7565.000000,
   7570.000000,
   7575.000000,
   7580.000000,
   7585.000000,
   7590.000000,
   7595.000000,
   7600.000000,
   7605.000000,
   7610.000000,
   7615.000000,
   7620.000000,
   7625.000000,
   7630.000000,
   7635.000000,
   7640.000000,
   7645.000000,
   7650.000000,
   7655.000000,
   7660.000000,
   7665.000000,
   7670.000000,
   7675.000000,
   7680.000000,
   7685.000000,
   7690.000000,
   7695.000000,
   7700.000000,
   7705.000000,
   7710.000000,
   7715.000000,
   7720.000000,
   7725.000000,
   7730.000000,
   7735.000000,
   7740.000000,
   7745.000000,
   7750.000000,
   7755.000000,
   7760.000000,
   7765.000000,
   7770.000000,
   7775.000000,
   7780.000000,
   7785.000000,
   7790.000000,
   7795.000000,
   7800.000000,
   7805.000000,
   7810.000000,
   7815.000000,
   7820.000000,
   7825.000000,
   7830.000000,
   7835.000000,
   7840.000000,
   7845.000000,
   7850.000000,
   7855.000000,
   7860.000000,
   7865.000000,
   7870.000000,
   7875.000000,
   7880.000000,
   7885.000000,
   7890.000000,
   7895.000000,
   7900.000000,
   7905.000000,
   7910.000000,
   7915.000000,
   7920.000000,
   7925.000000,
   7930.000000,
   7935.000000,
   7940.000000,
   7945.000000,
   7950.000000,
   7955.000000,
   7960.000000,
   7965.000000,
   7970.000000,
   7975.000000,
   7980.000000,
   7985.000000,
   7990.000000,
   7995.000000,
   8000.000000,
   8005.000000,
   8010.000000,
   8015.000000,
   8020.000000,
   8025.000000,
   8030.000000,
   8035.000000,
   8040.000000,
   8045.000000,
   8050.000000,
   8055.000000,
   8060.000000,
   8065.000000,
   8070.000000,
   8075.000000,
   8080.000000,
   8085.000000,
   8090.000000,
   8095.000000,
   8100.000000,
   8105.000000,
   8110.000000,
   8115.000000,
   8120.000000,
   8125.000000,
   8130.000000,
   8135.000000,
   8140.000000,
   8145.000000,
   8150.000000,
   8155.000000,
   8160.000000,
   8165.000000,
   8170.000000,
   8175.000000,
   8180.000000,
   8185.000000,
   8190.000000,
   8195.000000,
   8200.000000,
   8205.000000,
   8210.000000,
   8215.000000,
   8220.000000,
   8225.000000,
   8230.000000,
   8235.000000,
   8240.000000,
   8245.000000,
   8250.000000,
   8255.000000,
   8260.000000,
   8265.000000,
   8270.000000,
   8275.000000,
   8280.000000,
   8285.000000,
   8290.000000,
   8295.000000,
   8300.000000,
   8305.000000,
   8310.000000,
   8315.000000,
   8320.000000,
   8325.000000,
   8330.000000,
   8335.000000,
   8340.000000,
   8345.000000,
   8350.000000,
   8355.000000,
   8360.000000,
   8365.000000,
   8370.000000,
   8375.000000,
   8380.000000,
   8385.000000,
   8390.000000,
   8395.000000,
   8400.000000,
   8405.000000,
   8410.000000,
   8415.000000,
   8420.000000,
   8425.000000,
   8430.000000,
   8435.000000,
   8440.000000,
   8445.000000,
   8450.000000,
   8455.000000,
   8460.000000,
   8465.000000,
   8470.000000,
   8475.000000,
   8480.000000,
   8485.000000,
   8490.000000,
   8495.000000,
   8500.000000,
   8505.000000,
   8510.000000,
   8515.000000,
   8520.000000,
   8525.000000,
   8530.000000,
   8535.000000,
   8540.000000,
   8545.000000,
   8550.000000,
   8555.000000,
   8560.000000,
   8565.000000,
   8570.000000,
   8575.000000,
   8580.000000,
   8585.000000,
   8590.000000,
   8595.000000,
   8600.000000,
   8605.000000,
   8610.000000,
   8615.000000,
   8620.000000,
   8625.000000,
   8630.000000,
   8635.000000,
   8640.000000,
   8645.000000,
   8650.000000,
   8655.000000,
   8660.000000,
   8665.000000,
   8670.000000,
   8675.000000,
   8680.000000,
   8685.000000,
   8690.000000,
   8695.000000,
   8700.000000,
   8705.000000,
   8710.000000,
   8715.000000,
   8720.000000,
   8725.000000,
   8730.000000,
   8735.000000,
   8740.000000,
   8745.000000,
   8750.000000,
   8755.000000,
   8760.000000,
   8765.000000,
   8770.000000,
   8775.000000,
   8780.000000,
   8785.000000,
   8790.000000,
   8795.000000,
   8800.000000,
   8805.000000,
   8810.000000,
   8815.000000,
   8820.000000,
   8825.000000,
   8830.000000,
   8835.000000,
   8840.000000,
   8845.000000,
   8850.000000,
   8855.000000,
   8860.000000,
   8865.000000,
   8870.000000,
   8875.000000,
   8880.000000,
   8885.000000,
   8890.000000,
   8895.000000,
   8900.000000,
   8905.000000,
   8910.000000,
   8915.000000,
   8920.000000,
   8925.000000,
   8930.000000,
   8935.000000,
   8940.000000,
   8945.000000,
   8950.000000,
   8955.000000,
   8960.000000,
   8965.000000,
   8970.000000,
   8975.000000,
   8980.000000,
   8985.000000,
   8990.000000,
   8995.000000,
   9000.000000,
   9005.000000,
   9010.000000,
   9015.000000,
   9020.000000,
   9025.000000,
   9030.000000,
   9035.000000,
   9040.000000,
   9045.000000,
   9050.000000,
   9055.000000,
   9060.000000,
   9065.000000,
   9070.000000,
   9075.000000,
   9080.000000,
   9085.000000,
   9090.000000,
   9095.000000,
   9100.000000,
   9105.000000,
   9110.000000,
   9115.000000,
   9120.000000,
   9125.000000,
   9130.000000,
   9135.000000,
   9140.000000,
   9145.000000,
   9150.000000,
   9155.000000,
   9160.000000,
   9165.000000,
   9170.000000,
   9175.000000,
   9180.000000,
   9185.000000,
   9190.000000,
   9195.000000,
   9200.000000,
   9205.000000,
   9210.000000,
   9215.000000,
   9220.000000,
   9225.000000,
   9230.000000,
   9235.000000,
   9240.000000,
   9245.000000,
   9250.000000,
   9255.000000,
   9260.000000,
   9265.000000,
   9270.000000,
   9275.000000,
   9280.000000,
   9285.000000,
   9290.000000,
   9295.000000,
   9300.000000,
   9305.000000,
   9310.000000,
   9315.000000,
   9320.000000,
   9325.000000,
   9330.000000,
   9335.000000,
   9340.000000,
   9345.000000,
   9350.000000,
   9355.000000,
   9360.000000,
   9365.000000,
   9370.000000,
   9375.000000,
   9380.000000,
   9385.000000,
   9390.000000,
   9395.000000,
   9400.000000,
   9405.000000,
   9410.000000,
   9415.000000,
   9420.000000,
   9425.000000,
   9430.000000,
   9435.000000,
   9440.000000,
   9445.000000,
   9450.000000,
   9455.000000,
   9460.000000,
   9465.000000,
   9470.000000,
   9475.000000,
   9480.000000,
   9485.000000,
   9490.000000,
   9495.000000,
   9500.000000,
   9505.000000,
   9510.000000,
   9515.000000,
   9520.000000,
   9525.000000,
   9530.000000,
   9535.000000,
   9540.000000,
   9545.000000,
   9550.000000,
   9555.000000,
   9560.000000,
   9565.000000,
   9570.000000,
   9575.000000,
   9580.000000,
   9585.000000,
   9590.000000,
   9595.000000,
   9600.000000,
   9605.000000,
   9610.000000,
   9615.000000,
   9620.000000,
   9625.000000,
   9630.000000,
   9635.000000,
   9640.000000,
   9645.000000,
   9650.000000,
   9655.000000,
   9660.000000,
   9665.000000,
   9670.000000,
   9675.000000,
   9680.000000,
   9685.000000,
   9690.000000,
   9695.000000,
   9700.000000,
   9705.000000,
   9710.000000,
   9715.000000,
   9720.000000,
   9725.000000,
   9730.000000,
   9735.000000,
   9740.000000,
   9745.000000,
   9750.000000,
   9755.000000,
   9760.000000,
   9765.000000,
   9770.000000,
   9775.000000,
   9780.000000,
   9785.000000,
   9790.000000,
   9795.000000,
   9800.000000,
   9805.000000,
   9810.000000,
   9815.000000,
   9820.000000,
   9825.000000,
   9830.000000,
   9835.000000,
   9840.000000,
   9845.000000,
   9850.000000,
   9855.000000,
   9860.000000,
   9865.000000,
   9870.000000,
   9875.000000,
   9880.000000,
   9885.000000,
   9890.000000,
   9895.000000,
   9900.000000,
   9905.000000,
   9910.000000,
   9915.000000,
   9920.000000,
   9925.000000,
   9930.000000,
   9935.000000,
   9940.000000,
   9945.000000,
   9950.000000,
   9955.000000,
   9960.000000,
   9965.000000,
   9970.000000,
   9975.000000,
   9980.000000,
   9985.000000,
   9990.000000,
   9995.000000,
   10000.000000,
   10005.000000,
   10010.000000,
   10015.000000,
   10020.000000,
   10025.000000,
   10030.000000,
   10035.000000,
   10040.000000,
   10045.000000,
   10050.000000,
   10055.000000,
   10060.000000,
   10065.000000,
   10070.000000,
   10075.000000,
   10080.000000,
   10085.000000,
   10090.000000,
   10095.000000,
   10100.000000,
   10105.000000,
   10110.000000,
   10115.000000,
   10120.000000,
   10125.000000,
   10130.000000,
   10135.000000,
   10140.000000,
   10145.000000,
   10150.000000,
   10155.000000,
   10160.000000,
   10165.000000,
   10170.000000,
   10175.000000,
   10180.000000,
   10185.000000,
   10190.000000,
   10195.000000,
   10200.000000,
   10205.000000,
   10210.000000,
   10215.000000,
   10220.000000,
   10225.000000,
   10230.000000,
   10235.000000,
   10240.000000,
   10245.000000,
   10250.000000,
   10255.000000,
   10260.000000,
   10265.000000,
   10270.000000,
   10275.000000,
   10280.000000,
   10285.000000,
   10290.000000,
   10295.000000,
   10300.000000,
   10305.000000,
   10310.000000,
   10315.000000,
   10320.000000,
   10325.000000,
   10330.000000,
   10335.000000,
   10340.000000,
   10345.000000,
   10350.000000,
   10355.000000,
   10360.000000,
   10365.000000,
   10370.000000,
   10375.000000,
   10380.000000,
   10385.000000,
   10390.000000,
   10395.000000,
   10400.000000,
   10405.000000,
   10410.000000,
   10415.000000,
   10420.000000,
   10425.000000,
   10430.000000,
   10435.000000,
   10440.000000,
   10445.000000,
   10450.000000,
   10455.000000,
   10460.000000,
   10465.000000,
   10470.000000,
   10475.000000,
   10480.000000,
   10485.000000,
   10490.000000,
   10495.000000,
   10500.000000,
   10505.000000,
   10510.000000,
   10515.000000,
   10520.000000,
   10525.000000,
   10530.000000,
   10535.000000,
   10540.000000,
   10545.000000,
   10550.000000,
   10555.000000,
   10560.000000,
   10565.000000,
   10570.000000,
   10575.000000,
   10580.000000,
   10585.000000,
   10590.000000,
   10595.000000,
   10600.000000,
   10605.000000,
   10610.000000,
   10615.000000,
   10620.000000
};

static double _f8v_flux[] = {
   0.004218,
   0.002700,
   0.001559,
   0.001032,
   0.000821,
   0.000454,
   0.000417,
   0.000226,
   0.000000,
   0.000095,
   0.000605,
   0.001548,
   0.005655,
   0.008670,
   0.004748,
   0.001014,
   0.000255,
   0.000225,
   0.000245,
   0.000259,
   0.000205,
   0.000164,
   0.000184,
   0.000129,
   0.000095,
   0.000205,
   0.000269,
   0.000289,
   0.000222,
   0.000204,
   0.000340,
   0.000368,
   0.000249,
   0.000253,
   0.000232,
   0.000221,
   0.000326,
   0.000419,
   0.000266,
   0.000203,
   0.000203,
   0.000181,
   0.000173,
   0.000219,
   0.000221,
   0.000174,
   0.000214,
   0.000239,
   0.000254,
   0.000304,
   0.000291,
   0.000255,
   0.000233,
   0.000286,
   0.000266,
   0.000272,
   0.000318,
   0.000309,
   0.000255,
   0.000273,
   0.000305,
   0.000335,
   0.000304,
   0.000365,
   0.000421,
   0.000434,
   0.000417,
   0.000454,
   0.000434,
   0.000472,
   0.000495,
   0.000423,
   0.000389,
   0.000469,
   0.000534,
   0.000604,
   0.000660,
   0.000545,
   0.000530,
   0.000664,
   0.000797,
   0.000747,
   0.000614,
   0.000548,
   0.000603,
   0.000649,
   0.000595,
   0.000553,
   0.000519,
   0.000521,
   0.000542,
   0.000588,
   0.000661,
   0.000708,
   0.000610,
   0.000647,
   0.000770,
   0.000839,
   0.000740,
   0.000786,
   0.000861,
   0.000941,
   0.000973,
   0.000895,
   0.000822,
   0.000930,
   0.000971,
   0.000887,
   0.000991,
   0.001179,
   0.001272,
   0.001308,
   0.001278,
   0.001373,
   0.001470,
   0.001524,
   0.001529,
   0.001534,
   0.001627,
   0.001820,
   0.002036,
   0.002186,
   0.002329,
   0.002442,
   0.002660,
   0.002935,
   0.003124,
   0.002752,
   0.002108,
   0.002832,
   0.003188,
   0.003270,
   0.003611,
   0.003972,
   0.004299,
   0.004372,
   0.004219,
   0.004278,
   0.004020,
   0.003688,
   0.003715,
   0.004222,
   0.004520,
   0.004887,
   0.005335,
   0.006344,
   0.007690,
   0.008139,
   0.009272,
   0.008011,
   0.006859,
   0.008702,
   0.009708,
   0.010092,
   0.009597,
   0.009109,
   0.007672,
   0.007722,
   0.010346,
   0.012172,
   0.011925,
   0.008668,
   0.005170,
   0.008492,
   0.012396,
   0.008267,
   0.012152,
   0.013540,
   0.009477,
   0.016207,
   0.016881,
   0.013789,
   0.017562,
   0.021060,
   0.017936,
   0.020307,
   0.022083,
   0.014243,
   0.018543,
   0.021863,
   0.027790,
   0.021163,
   0.018227,
   0.029155,
   0.032601,
   0.031551,
   0.031408,
   0.031796,
   0.030866,
   0.033903,
   0.042639,
   0.051847,
   0.051301,
   0.055334,
   0.063527,
   0.059360,
   0.050342,
   0.051207,
   0.053985,
   0.058494,
   0.060189,
   0.059765,
   0.053320,
   0.051288,
   0.043413,
   0.038987,
   0.046286,
   0.057207,
   0.071306,
   0.077964,
   0.076043,
   0.066059,
   0.051712,
   0.052809,
   0.057818,
   0.065521,
   0.067717,
   0.074511,
   0.071353,
   0.067166,
   0.068814,
   0.062303,
   0.054409,
   0.046721,
   0.049844,
   0.056082,
   0.062558,
   0.065625,
   0.063806,
   0.056690,
   0.063833,
   0.070566,
   0.067539,
   0.061160,
   0.063742,
   0.068536,
   0.054697,
   0.041770,
   0.036990,
   0.039962,
   0.046009,
   0.051153,
   0.047665,
   0.052902,
   0.054836,
   0.057533,
   0.049233,
   0.037287,
   0.037769,
   0.038161,
   0.032024,
   0.030326,
   0.038173,
   0.054793,
   0.073462,
   0.080548,
   0.073233,
   0.071906,
   0.074007,
   0.065647,
   0.059439,
   0.060030,
   0.058181,
   0.052838,
   0.055746,
   0.054166,
   0.051212,
   0.052068,
   0.053588,
   0.068002,
   0.072359,
   0.067438,
   0.057801,
   0.046259,
   0.042663,
   0.043281,
   0.053670,
   0.057171,
   0.054761,
   0.061182,
   0.072506,
   0.077334,
   0.085547,
   0.108902,
   0.113589,
   0.095442,
   0.096804,
   0.105142,
   0.103484,
   0.086246,
   0.074590,
   0.075660,
   0.075932,
   0.087947,
   0.088551,
   0.088395,
   0.118978,
   0.169675,
   0.203102,
   0.198938,
   0.201401,
   0.215336,
   0.195814,
   0.193099,
   0.198108,
   0.198876,
   0.193597,
   0.191595,
   0.187079,
   0.195851,
   0.215186,
   0.210582,
   0.190872,
   0.171855,
   0.164583,
   0.177746,
   0.182985,
   0.150350,
   0.113138,
   0.113127,
   0.126528,
   0.150211,
   0.173404,
   0.186507,
   0.185088,
   0.169270,
   0.144415,
   0.112572,
   0.081471,
   0.064216,
   0.068309,
   0.094559,
   0.141763,
   0.207705,
   0.233992,
   0.241362,
   0.253482,
   0.252607,
   0.226975,
   0.184778,
   0.154452,
   0.201063,
   0.267310,
   0.282227,
   0.275517,
   0.254723,
   0.257774,
   0.291041,
   0.334444,
   0.388703,
   0.424669,
   0.424073,
   0.426398,
   0.418218,
   0.377330,
   0.354312,
   0.373991,
   0.383679,
   0.382696,
   0.381364,
   0.390959,
   0.416000,
   0.406363,
   0.378680,
   0.382577,
   0.405115,
   0.350858,
   0.339080,
   0.374040,
   0.348391,
   0.320704,
   0.338474,
   0.362653,
   0.351320,
   0.368990,
   0.410833,
   0.418436,
   0.403738,
   0.400521,
   0.422772,
   0.427858,
   0.390675,
   0.373078,
   0.389638,
   0.412671,
   0.414131,
   0.430875,
   0.418031,
   0.379276,
   0.362530,
   0.397051,
   0.453191,
   0.480605,
   0.445338,
   0.437473,
   0.451929,
   0.461578,
   0.482881,
   0.466413,
   0.454633,
   0.473821,
   0.426804,
   0.419335,
   0.447083,
   0.479407,
   0.483705,
   0.474049,
   0.485540,
   0.495954,
   0.499796,
   0.501583,
   0.509994,
   0.509620,
   0.489238,
   0.461661,
   0.442885,
   0.437582,
   0.446677,
   0.467419,
   0.495586,
   0.524756,
   0.549590,
   0.571263,
   0.588246,
   0.581663,
   0.542814,
   0.521059,
   0.559120,
   0.615125,
   0.639373,
   0.635448,
   0.619625,
   0.605645,
   0.601932,
   0.598174,
   0.584747,
   0.573511,
   0.577131,
   0.590006,
   0.602043,
   0.603449,
   0.588465,
   0.567190,
   0.552562,
   0.553023,
   0.571205,
   0.591006,
   0.597570,
   0.599794,
   0.607907,
   0.613729,
   0.608487,
   0.599428,
   0.595427,
   0.595829,
   0.595814,
   0.583420,
   0.552600,
   0.528107,
   0.533273,
   0.554955,
   0.573838,
   0.582398,
   0.578571,
   0.570350,
   0.565020,
   0.556988,
   0.542475,
   0.537862,
   0.558347,
   0.594240,
   0.628852,
   0.632886,
   0.633869,
   0.613593,
   0.602357,
   0.632452,
   0.667326,
   0.692441,
   0.699947,
   0.691917,
   0.672512,
   0.653196,
   0.606736,
   0.568848,
   0.559368,
   0.533106,
   0.523671,
   0.578738,
   0.637899,
   0.645352,
   0.609220,
   0.589087,
   0.593502,
   0.604145,
   0.652563,
   0.641650,
   0.627726,
   0.659137,
   0.647718,
   0.660711,
   0.720012,
   0.752523,
   0.735084,
   0.721806,
   0.717303,
   0.693549,
   0.688931,
   0.715419,
   0.749788,
   0.755747,
   0.699201,
   0.712225,
   0.755263,
   0.697129,
   0.694685,
   0.680221,
   0.617619,
   0.661031,
   0.638726,
   0.636003,
   0.725330,
   0.730933,
   0.727740,
   0.734488,
   0.814688,
   0.892520,
   0.870207,
   0.780048,
   0.716195,
   0.757742,
   0.858166,
   0.880305,
   0.811577,
   0.744364,
   0.661876,
   0.580742,
   0.541778,
   0.633223,
   0.785888,
   0.854830,
   0.838804,
   0.827294,
   0.866535,
   0.835858,
   0.806391,
   0.765985,
   0.695439,
   0.697541,
   0.787172,
   0.832700,
   0.850010,
   0.892656,
   0.886501,
   0.812053,
   0.662171,
   0.445226,
   0.406642,
   0.590085,
   0.752813,
   0.842795,
   0.840250,
   0.714722,
   0.505333,
   0.470777,
   0.690722,
   0.888680,
   0.971723,
   1.011821,
   1.029765,
   1.042286,
   1.045128,
   1.070109,
   1.089731,
   1.102193,
   1.098320,
   1.060591,
   1.070337,
   1.082304,
   1.042458,
   1.060270,
   1.040793,
   1.017114,
   1.015066,
   1.023067,
   1.013088,
   1.028777,
   1.071589,
   1.071715,
   0.976245,
   0.867453,
   0.919711,
   1.028043,
   1.084127,
   1.088029,
   1.081554,
   1.069894,
   1.093722,
   1.115242,
   1.105637,
   1.095559,
   1.083041,
   1.114116,
   1.123689,
   1.070430,
   1.040754,
   1.058514,
   1.069510,
   1.086535,
   1.066618,
   1.041751,
   1.073223,
   1.108232,
   1.104023,
   1.077626,
   1.011606,
   1.039023,
   1.048663,
   1.056526,
   1.056017,
   1.052531,
   1.059517,
   1.054011,
   1.064924,
   1.022243,
   1.025763,
   1.042605,
   1.007857,
   0.969023,
   0.929497,
   0.846559,
   0.818600,
   0.869609,
   1.004483,
   1.052687,
   1.015795,
   1.030042,
   0.963924,
   0.858933,
   0.936890,
   1.016520,
   1.068697,
   1.119610,
   1.141270,
   1.112734,
   1.088341,
   1.052570,
   1.013762,
   1.054519,
   1.085107,
   1.085756,
   1.080647,
   1.108514,
   1.122896,
   1.141644,
   1.142677,
   1.133891,
   1.123070,
   1.134192,
   1.134418,
   1.125870,
   1.082884,
   1.077787,
   1.108641,
   1.145687,
   1.174817,
   1.148881,
   1.155252,
   1.155882,
   1.168792,
   1.204790,
   1.228336,
   1.213276,
   1.188738,
   1.162297,
   1.110563,
   1.084571,
   1.125818,
   1.157268,
   1.129210,
   1.106008,
   1.137939,
   1.166792,
   1.170074,
   1.179721,
   1.177276,
   1.141382,
   1.132570,
   1.140309,
   1.140312,
   1.140287,
   1.161979,
   1.171571,
   1.160530,
   1.169018,
   1.171192,
   1.160534,
   1.146662,
   1.138789,
   1.121820,
   1.123500,
   1.142634,
   1.146948,
   1.097236,
   1.110543,
   1.140952,
   1.136931,
   1.148969,
   1.145421,
   1.139070,
   1.100718,
   1.091056,
   1.111989,
   1.143734,
   1.161224,
   1.145722,
   1.115354,
   1.126136,
   1.144148,
   1.153790,
   1.136209,
   1.122011,
   1.117461,
   1.110147,
   1.134586,
   1.161186,
   1.157727,
   1.129603,
   1.138648,
   1.152604,
   1.138316,
   1.132208,
   1.145982,
   1.163430,
   1.149136,
   1.126817,
   1.120176,
   1.118138,
   1.107364,
   1.095997,
   1.061110,
   0.970846,
   0.880294,
   0.902783,
   0.956295,
   1.016914,
   1.057275,
   1.063083,
   1.070034,
   1.105335,
   1.120804,
   1.124724,
   1.110791,
   1.096373,
   1.066012,
   1.086075,
   1.098638,
   1.092631,
   1.098158,
   1.117553,
   1.126126,
   1.108354,
   1.110747,
   1.112412,
   1.119530,
   1.112379,
   1.070306,
   1.066681,
   1.079301,
   1.078490,
   1.062998,
   1.043036,
   1.040625,
   1.022585,
   1.032092,
   1.045295,
   1.067706,
   1.060278,
   1.041288,
   1.060289,
   1.066146,
   1.086370,
   1.092324,
   1.082044,
   1.071627,
   1.054553,
   1.045804,
   1.067418,
   1.079901,
   1.072242,
   1.061140,
   1.059011,
   1.067645,
   1.086304,
   1.076822,
   1.058491,
   1.050314,
   1.037554,
   1.029024,
   1.031230,
   1.036507,
   1.040878,
   1.028826,
   0.969580,
   0.942723,
   0.969324,
   0.969038,
   0.970526,
   0.987482,
   1.004340,
   1.020570,
   1.020761,
   1.029541,
   1.030406,
   1.034721,
   1.009191,
   1.012359,
   1.024611,
   1.041407,
   1.041530,
   1.039602,
   1.039194,
   1.008294,
   0.963471,
   0.955589,
   0.977753,
   1.004887,
   1.030468,
   1.050066,
   1.038356,
   1.036740,
   1.044622,
   1.053837,
   1.051495,
   1.030202,
   0.997442,
   0.993674,
   1.006709,
   1.012911,
   1.017859,
   1.030809,
   1.048603,
   1.037647,
   1.017979,
   1.010761,
   1.022405,
   1.025632,
   1.028036,
   1.019262,
   1.005236,
   0.991156,
   0.980087,
   0.988076,
   1.002934,
   1.009045,
   1.011721,
   1.009922,
   1.012918,
   1.022044,
   1.018063,
   1.018944,
   1.011816,
   1.017736,
   1.015452,
   1.011582,
   0.999188,
   1.001337,
   1.011474,
   1.016304,
   1.011727,
   1.009960,
   1.011399,
   1.013173,
   1.019712,
   1.021709,
   1.009154,
   1.005054,
   1.006225,
   1.017552,
   1.021466,
   1.022755,
   1.011542,
   1.005747,
   0.996429,
   0.991080,
   0.992579,
   0.991698,
   0.974662,
   0.969650,
   0.965486,
   0.967162,
   0.986792,
   0.990156,
   0.979090,
   0.981909,
   0.979987,
   0.986801,
   0.982245,
   0.978091,
   0.977677,
   0.967778,
   0.952852,
   0.947926,
   0.955038,
   0.969097,
   0.978297,
   0.970408,
   0.960408,
   0.961514,
   0.962210,
   0.960124,
   0.949258,
   0.941215,
   0.954862,
   0.969010,
   0.978152,
   0.980201,
   0.979344,
   0.974202,
   0.970270,
   0.962779,
   0.963663,
   0.967152,
   0.969902,
   0.969900,
   0.962610,
   0.951536,
   0.945795,
   0.947342,
   0.952496,
   0.959524,
   0.958024,
   0.957598,
   0.963795,
   0.967820,
   0.967007,
   0.966518,
   0.970564,
   0.972319,
   0.965624,
   0.955749,
   0.942946,
   0.940226,
   0.948476,
   0.957860,
   0.958534,
   0.948416,
   0.921672,
   0.886758,
   0.886330,
   0.914840,
   0.937627,
   0.941104,
   0.942074,
   0.946135,
   0.937942,
   0.931576,
   0.937764,
   0.936069,
   0.928162,
   0.923997,
   0.928559,
   0.932289,
   0.938068,
   0.936288,
   0.926149,
   0.915585,
   0.911172,
   0.914657,
   0.914372,
   0.911101,
   0.901583,
   0.899191,
   0.897967,
   0.896057,
   0.900149,
   0.903944,
   0.908939,
   0.908296,
   0.913395,
   0.912812,
   0.908636,
   0.908582,
   0.905968,
   0.913926,
   0.905190,
   0.894838,
   0.892501,
   0.894457,
   0.889104,
   0.871754,
   0.877549,
   0.892563,
   0.886295,
   0.875503,
   0.878064,
   0.874426,
   0.856287,
   0.858633,
   0.869658,
   0.869487,
   0.856856,
   0.837969,
   0.840636,
   0.849201,
   0.866830,
   0.873524,
   0.868348,
   0.863007,
   0.874793,
   0.878350,
   0.880425,
   0.873093,
   0.861324,
   0.862380,
   0.861679,
   0.850435,
   0.850515,
   0.847588,
   0.840261,
   0.842501,
   0.837216,
   0.844910,
   0.850407,
   0.854282,
   0.839874,
   0.826876,
   0.846970,
   0.851483,
   0.841535,
   0.831468,
   0.839836,
   0.840408,
   0.826353,
   0.830315,
   0.848811,
   0.849030,
   0.838628,
   0.836579,
   0.839063,
   0.842390,
   0.834390,
   0.830104,
   0.837018,
   0.842734,
   0.846614,
   0.842628,
   0.840633,
   0.834737,
   0.827535,
   0.827049,
   0.828198,
   0.823375,
   0.821369,
   0.824626,
   0.831535,
   0.826243,
   0.827930,
   0.831309,
   0.829109,
   0.818313,
   0.812377,
   0.811292,
   0.817018,
   0.820623,
   0.821504,
   0.821900,
   0.819622,
   0.801365,
   0.788290,
   0.812931,
   0.832271,
   0.829867,
   0.817593,
   0.824527,
   0.827833,
   0.825946,
   0.825842,
   0.817173,
   0.800370,
   0.775148,
   0.718246,
   0.629180,
   0.663811,
   0.749334,
   0.789232,
   0.802575,
   0.803541,
   0.798708,
   0.801593,
   0.814639,
   0.814645,
   0.813643,
   0.817813,
   0.817516,
   0.811726,
   0.799714,
   0.798344,
   0.799846,
   0.796572,
   0.798990,
   0.796543,
   0.789418,
   0.788621,
   0.791845,
   0.786303,
   0.788209,
   0.791718,
   0.791880,
   0.787935,
   0.786189,
   0.780269,
   0.775714,
   0.770101,
   0.770869,
   0.778052,
   0.781838,
   0.778237,
   0.773260,
   0.770740,
   0.767907,
   0.774114,
   0.774872,
   0.773069,
   0.770694,
   0.771408,
   0.770022,
   0.766224,
   0.768392,
   0.768473,
   0.768446,
   0.765217,
   0.765888,
   0.765146,
   0.761435,
   0.760273,
   0.755224,
   0.750681,
   0.749857,
   0.749032,
   0.748208,
   0.747383,
   0.746559,
   0.745734,
   0.744910,
   0.744085,
   0.743261,
   0.742436,
   0.741612,
   0.740787,
   0.739963,
   0.739138,
   0.738314,
   0.737489,
   0.736665,
   0.735840,
   0.735016,
   0.734191,
   0.733366,
   0.732542,
   0.731717,
   0.730893,
   0.730068,
   0.729244,
   0.728419,
   0.727595,
   0.727471,
   0.734492,
   0.729498,
   0.729777,
   0.720778,
   0.709922,
   0.720470,
   0.713788,
   0.711538,
   0.708554,
   0.713075,
   0.713304,
   0.715898,
   0.724128,
   0.721070,
   0.715651,
   0.716704,
   0.713998,
   0.716213,
   0.720042,
   0.714922,
   0.711083,
   0.711748,
   0.712455,
   0.711395,
   0.713381,
   0.706262,
   0.707145,
   0.708142,
   0.710755,
   0.711619,
   0.711997,
   0.706207,
   0.700071,
   0.704561,
   0.709672,
   0.701784,
   0.690127,
   0.686051,
   0.680610,
   0.677380,
   0.664890,
   0.662594,
   0.669716,
   0.672050,
   0.678481,
   0.692684,
   0.700685,
   0.698819,
   0.693633,
   0.683762,
   0.674759,
   0.677593,
   0.680351,
   0.674394,
   0.673905,
   0.679230,
   0.674631,
   0.675436,
   0.665702,
   0.670077,
   0.665765,
   0.649720,
   0.664061,
   0.668958,
   0.663593,
   0.664704,
   0.664296,
   0.664496,
   0.665168,
   0.661023,
   0.662733,
   0.664608,
   0.661914,
   0.657627,
   0.656247,
   0.657798,
   0.657549,
   0.658071,
   0.654482,
   0.650462,
   0.634883,
   0.630723,
   0.637905,
   0.634788,
   0.627928,
   0.625617,
   0.633321,
   0.635964,
   0.654020,
   0.662718,
   0.664059,
   0.659141,
   0.649752,
   0.656296,
   0.662677,
   0.656225,
   0.656052,
   0.660279,
   0.657515,
   0.655463,
   0.656408,
   0.651398,
   0.644305,
   0.652526,
   0.649345,
   0.641155,
   0.646947,
   0.649051,
   0.643686,
   0.644153,
   0.648014,
   0.649335,
   0.644417,
   0.642568,
   0.641651,
   0.640734,
   0.639818,
   0.638901,
   0.637984,
   0.637067,
   0.636150,
   0.635234,
   0.634317,
   0.633400,
   0.632483,
   0.631567,
   0.630650,
   0.629733,
   0.628816,
   0.627900,
   0.626983,
   0.626066,
   0.625149,
   0.624232,
   0.623316,
   0.622399,
   0.621482,
   0.620565,
   0.619649,
   0.618732,
   0.617815,
   0.616898,
   0.615982,
   0.615065,
   0.614148,
   0.613231,
   0.612314,
   0.611398,
   0.610481,
   0.609564,
   0.613171,
   0.608385,
   0.597665,
   0.598234,
   0.606628,
   0.607664,
   0.608904,
   0.599128,
   0.590918,
   0.598112,
   0.602197,
   0.602238,
   0.600480,
   0.595796,
   0.597889,
   0.596761,
   0.601537,
   0.603356,
   0.600988,
   0.592585,
   0.589526,
   0.595684,
   0.595857,
   0.594424,
   0.594871,
   0.596680,
   0.594536,
   0.594017,
   0.590725,
   0.588276,
   0.590563,
   0.589292,
   0.585502,
   0.586681,
   0.588195,
   0.584720,
   0.579507,
   0.579456,
   0.579507,
   0.571033,
   0.570108,
   0.571256,
   0.568472,
   0.577749,
   0.581631,
   0.578044,
   0.578206,
   0.580107,
   0.581600,
   0.581814,
   0.580015,
   0.578867,
   0.571510,
   0.567557,
   0.573583,
   0.573329,
   0.575260,
   0.574650,
   0.567954,
   0.567588,
   0.572455,
   0.571226,
   0.561522,
   0.563066,
   0.570128,
   0.571642,
   0.571551,
   0.567405,
   0.567100,
   0.565241,
   0.561847,
   0.561390,
   0.557884,
   0.557483,
   0.557083,
   0.556682,
   0.556282,
   0.555881,
   0.555481,
   0.555080,
   0.554680,
   0.554279,
   0.553878,
   0.553478,
   0.553077,
   0.552677,
   0.552276,
   0.551876,
   0.551475,
   0.551075,
   0.550674,
   0.550273,
   0.549873,
   0.549472,
   0.549072,
   0.548671,
   0.548271,
   0.547870,
   0.547470,
   0.547069,
   0.546668,
   0.546268,
   0.545867,
   0.545467,
   0.545066,
   0.544666,
   0.544265,
   0.543865,
   0.543464,
   0.543064,
   0.542663,
   0.542262,
   0.541862,
   0.541461,
   0.541061,
   0.540660,
   0.540260,
   0.539859,
   0.539459,
   0.539058,
   0.538657,
   0.538257,
   0.537856,
   0.537456,
   0.537055,
   0.536655,
   0.536254,
   0.535854,
   0.535453,
   0.535053,
   0.534652,
   0.534251,
   0.533851,
   0.533450,
   0.533050,
   0.536820,
   0.536484,
   0.535997,
   0.534960,
   0.534615,
   0.528284,
   0.525368,
   0.525378,
   0.530032,
   0.533649,
   0.533192,
   0.525490,
   0.523397,
   0.528558,
   0.527634,
   0.526750,
   0.519728,
   0.478087,
   0.468211,
   0.510878,
   0.515339,
   0.511437,
   0.516213,
   0.513845,
   0.507464,
   0.472011,
   0.399317,
   0.419223,
   0.487233,
   0.499995,
   0.510156,
   0.513845,
   0.509984,
   0.510156,
   0.506620,
   0.504822,
   0.503785,
   0.495961,
   0.496510,
   0.500015,
   0.498542,
   0.498308,
   0.501032,
   0.503633,
   0.503389,
   0.500605,
   0.498908,
   0.491958,
   0.486247,
   0.465335,
   0.401187,
   0.416835,
   0.467814,
   0.479723,
   0.483371,
   0.482731,
   0.480232,
   0.487222,
   0.488035,
   0.489326,
   0.482873,
   0.481309,
   0.485089,
   0.484418,
   0.479104,
   0.474663,
   0.473190,
   0.470985,
   0.465640,
   0.482834,
   0.483084,
   0.483708,
   0.486827,
   0.489075,
   0.491202,
   0.488165,
   0.497818,
   0.472641,
   0.471487,
   0.463120,
   0.469952,
   0.480827,
   0.480812,
   0.480950,
   0.482081,
   0.480399,
   0.479012,
   0.480631,
   0.481462,
   0.480173,
   0.474380,
   0.473277,
   0.478770,
   0.481216,
   0.482097,
   0.482952,
   0.482401,
   0.482463,
   0.483997,
   0.484777,
   0.484340,
   0.485218,
   0.483220,
   0.475230,
   0.476462,
   0.471080,
   0.468343,
   0.469619,
   0.473714,
   0.478793,
   0.483022,
   0.484910,
   0.484346,
   0.481560,
   0.476785,
   0.470518,
   0.464325,
   0.460037,
   0.459489,
   0.463865,
   0.471776,
   0.481185,
   0.490056,
   0.496710,
   0.500898,
   0.502729,
   0.502311,
   0.499738,
   0.495036,
   0.488218,
   0.479295,
   0.468649,
   0.458132,
   0.449967,
   0.446376,
   0.448724,
   0.454961,
   0.462177,
   0.467464,
   0.468673,
   0.466681,
   0.463125,
   0.459640,
   0.457416,
   0.455857,
   0.453920,
   0.450564,
   0.445220,
   0.439223,
   0.434382,
   0.432507,
   0.434797,
   0.440008,
   0.446288,
   0.451783,
   0.455044,
   0.456235,
   0.455925,
   0.454684,
   0.453020,
   0.451208,
   0.449463,
   0.448002,
   0.446914,
   0.445785,
   0.444075,
   0.441246,
   0.437094,
   0.432767,
   0.429745,
   0.429514,
   0.432891,
   0.438045,
   0.442480,
   0.443700,
   0.439929,
   0.432264,
   0.422525,
   0.412529,
   0.404051,
   0.398681,
   0.397968,
   0.403458,
   0.415620,
   0.430611,
   0.443505,
   0.449381,
   0.444985,
   0.433744,
   0.420756,
   0.411116,
   0.408732,
   0.412752,
   0.421133,
   0.431832,
   0.442779,
   0.451787,
   0.456638,
   0.455117,
   0.445966,
   0.431758,
   0.416024,
   0.402296,
   0.393377,
   0.389158,
   0.388803,
   0.391476,
   0.396248,
   0.401829,
   0.406836,
   0.409888,
   0.410040,
   0.408100,
   0.405315,
   0.402932,
   0.401885,
   0.401871,
   0.402274,
   0.402480,
   0.402089,
   0.401561,
   0.401570,
   0.402792,
   0.405630,
   0.409399,
   0.413146,
   0.415913,
   0.417030,
   0.416961,
   0.416453,
   0.416255,
   0.416849,
   0.417658,
   0.417837,
   0.416544,
   0.413301,
   0.409094,
   0.405277,
   0.403201,
   0.403749,
   0.405931,
   0.408289,
   0.409362,
   0.408152,
   0.405505,
   0.402725,
   0.401120,
   0.401629,
   0.403723,
   0.406510,
   0.409094,
   0.410779,
   0.411650,
   0.411991,
   0.412084,
   0.412149,
   0.412158,
   0.412021,
   0.411648,
   0.410953,
   0.409876,
   0.408362,
   0.406357,
   0.403884,
   0.401286,
   0.398984,
   0.397399,
   0.396818,
   0.396988,
   0.397519,
   0.398025,
   0.398180,
   0.397904,
   0.397184,
   0.396003,
   0.394415,
   0.392746,
   0.391392,
   0.390748,
   0.391077,
   0.392113,
   0.393460,
   0.394720,
   0.395561,
   0.395918,
   0.395791,
   0.395180,
   0.394088,
   0.392525,
   0.390505,
   0.388040,
   0.385234,
   0.382554,
   0.380560,
   0.379810,
   0.380640,
   0.382492,
   0.384587,
   0.386145,
   0.386597,
   0.386211,
   0.385468,
   0.384848,
   0.384726,
   0.385059,
   0.385700,
   0.386502,
   0.387337,
   0.388152,
   0.388916,
   0.389597,
   0.390128,
   0.390306,
   0.389891,
   0.388646,
   0.386492,
   0.383989,
   0.381853,
   0.380805,
   0.381275,
   0.382542,
   0.383601,
   0.383443,
   0.381376,
   0.377961,
   0.374074,
   0.370593,
   0.368266,
   0.367337,
   0.367922,
   0.370137,
   0.373884,
   0.378206,
   0.381932,
   0.383890,
   0.383268,
   0.380686,
   0.377126,
   0.373566,
   0.370798,
   0.368870,
   0.367638,
   0.366962,
   0.366656,
   0.366360,
   0.365672,
   0.364188,
   0.361715,
   0.358902,
   0.356607,
   0.355689,
   0.356663,
   0.358668,
   0.360496,
   0.360942,
   0.359194,
   0.356018,
   0.352572,
   0.350017,
   0.349187,
   0.349626,
   0.350550,
   0.351179,
   0.350932,
   0.350034,
   0.348913,
   0.347995,
   0.347596,
   0.347585,
   0.347718,
   0.347751,
   0.347527,
   0.347233,
   0.347141,
   0.347522,
   0.348548,
   0.349982,
   0.351486,
   0.352722,
   0.353428,
   0.353652,
   0.353515,
   0.353143,
   0.352645,
   0.352081,
   0.351498,
   0.350941,
   0.350430,
   0.349868,
   0.349130,
   0.348093,
   0.346779,
   0.345807,
   0.345943,
   0.347952,
   0.352213,
   0.357547,
   0.362388,
   0.365169,
   0.364781,
   0.361947,
   0.357849,
   0.353667,
   0.350375,
   0.348118,
   0.346833,
   0.346459,
   0.346864,
   0.347646,
   0.348334,
   0.348457,
   0.347749,
   0.346758,
   0.346238,
   0.346942,
   0.349305,
   0.352484,
   0.355318,
   0.356644,
   0.355619,
   0.352665,
   0.348520,
   0.343924,
   0.339566,
   0.335940,
   0.333488,
   0.332654,
   0.333696,
   0.336126,
   0.339270,
   0.342455,
   0.345058,
   0.346650,
   0.346855,
   0.345294,
   0.341863,
   0.337541,
   0.333582,
   0.331240,
   0.331439,
   0.333789,
   0.337575,
   0.342077
};

#endif
