#ifndef _G0I_H_
#define _G0I_H_

/* spectrum for g0i star           */
/* number of elements = 1895       */

static double _g0i_lambda[] = {
   1150.000000,
   1155.000000,
   1160.000000,
   1165.000000,
   1170.000000,
   1175.000000,
   1180.000000,
   1185.000000,
   1190.000000,
   1195.000000,
   1200.000000,
   1205.000000,
   1210.000000,
   1215.000000,
   1220.000000,
   1225.000000,
   1230.000000,
   1235.000000,
   1240.000000,
   1245.000000,
   1250.000000,
   1255.000000,
   1260.000000,
   1265.000000,
   1270.000000,
   1275.000000,
   1280.000000,
   1285.000000,
   1290.000000,
   1295.000000,
   1300.000000,
   1305.000000,
   1310.000000,
   1315.000000,
   1320.000000,
   1325.000000,
   1330.000000,
   1335.000000,
   1340.000000,
   1345.000000,
   1350.000000,
   1355.000000,
   1360.000000,
   1365.000000,
   1370.000000,
   1375.000000,
   1380.000000,
   1385.000000,
   1390.000000,
   1395.000000,
   1400.000000,
   1405.000000,
   1410.000000,
   1415.000000,
   1420.000000,
   1425.000000,
   1430.000000,
   1435.000000,
   1440.000000,
   1445.000000,
   1450.000000,
   1455.000000,
   1460.000000,
   1465.000000,
   1470.000000,
   1475.000000,
   1480.000000,
   1485.000000,
   1490.000000,
   1495.000000,
   1500.000000,
   1505.000000,
   1510.000000,
   1515.000000,
   1520.000000,
   1525.000000,
   1530.000000,
   1535.000000,
   1540.000000,
   1545.000000,
   1550.000000,
   1555.000000,
   1560.000000,
   1565.000000,
   1570.000000,
   1575.000000,
   1580.000000,
   1585.000000,
   1590.000000,
   1595.000000,
   1600.000000,
   1605.000000,
   1610.000000,
   1615.000000,
   1620.000000,
   1625.000000,
   1630.000000,
   1635.000000,
   1640.000000,
   1645.000000,
   1650.000000,
   1655.000000,
   1660.000000,
   1665.000000,
   1670.000000,
   1675.000000,
   1680.000000,
   1685.000000,
   1690.000000,
   1695.000000,
   1700.000000,
   1705.000000,
   1710.000000,
   1715.000000,
   1720.000000,
   1725.000000,
   1730.000000,
   1735.000000,
   1740.000000,
   1745.000000,
   1750.000000,
   1755.000000,
   1760.000000,
   1765.000000,
   1770.000000,
   1775.000000,
   1780.000000,
   1785.000000,
   1790.000000,
   1795.000000,
   1800.000000,
   1805.000000,
   1810.000000,
   1815.000000,
   1820.000000,
   1825.000000,
   1830.000000,
   1835.000000,
   1840.000000,
   1845.000000,
   1850.000000,
   1855.000000,
   1860.000000,
   1865.000000,
   1870.000000,
   1875.000000,
   1880.000000,
   1885.000000,
   1890.000000,
   1895.000000,
   1900.000000,
   1905.000000,
   1910.000000,
   1915.000000,
   1920.000000,
   1925.000000,
   1930.000000,
   1935.000000,
   1940.000000,
   1945.000000,
   1950.000000,
   1955.000000,
   1960.000000,
   1965.000000,
   1970.000000,
   1975.000000,
   1980.000000,
   1985.000000,
   1990.000000,
   1995.000000,
   2000.000000,
   2005.000000,
   2010.000000,
   2015.000000,
   2020.000000,
   2025.000000,
   2030.000000,
   2035.000000,
   2040.000000,
   2045.000000,
   2050.000000,
   2055.000000,
   2060.000000,
   2065.000000,
   2070.000000,
   2075.000000,
   2080.000000,
   2085.000000,
   2090.000000,
   2095.000000,
   2100.000000,
   2105.000000,
   2110.000000,
   2115.000000,
   2120.000000,
   2125.000000,
   2130.000000,
   2135.000000,
   2140.000000,
   2145.000000,
   2150.000000,
   2155.000000,
   2160.000000,
   2165.000000,
   2170.000000,
   2175.000000,
   2180.000000,
   2185.000000,
   2190.000000,
   2195.000000,
   2200.000000,
   2205.000000,
   2210.000000,
   2215.000000,
   2220.000000,
   2225.000000,
   2230.000000,
   2235.000000,
   2240.000000,
   2245.000000,
   2250.000000,
   2255.000000,
   2260.000000,
   2265.000000,
   2270.000000,
   2275.000000,
   2280.000000,
   2285.000000,
   2290.000000,
   2295.000000,
   2300.000000,
   2305.000000,
   2310.000000,
   2315.000000,
   2320.000000,
   2325.000000,
   2330.000000,
   2335.000000,
   2340.000000,
   2345.000000,
   2350.000000,
   2355.000000,
   2360.000000,
   2365.000000,
   2370.000000,
   2375.000000,
   2380.000000,
   2385.000000,
   2390.000000,
   2395.000000,
   2400.000000,
   2405.000000,
   2410.000000,
   2415.000000,
   2420.000000,
   2425.000000,
   2430.000000,
   2435.000000,
   2440.000000,
   2445.000000,
   2450.000000,
   2455.000000,
   2460.000000,
   2465.000000,
   2470.000000,
   2475.000000,
   2480.000000,
   2485.000000,
   2490.000000,
   2495.000000,
   2500.000000,
   2505.000000,
   2510.000000,
   2515.000000,
   2520.000000,
   2525.000000,
   2530.000000,
   2535.000000,
   2540.000000,
   2545.000000,
   2550.000000,
   2555.000000,
   2560.000000,
   2565.000000,
   2570.000000,
   2575.000000,
   2580.000000,
   2585.000000,
   2590.000000,
   2595.000000,
   2600.000000,
   2605.000000,
   2610.000000,
   2615.000000,
   2620.000000,
   2625.000000,
   2630.000000,
   2635.000000,
   2640.000000,
   2645.000000,
   2650.000000,
   2655.000000,
   2660.000000,
   2665.000000,
   2670.000000,
   2675.000000,
   2680.000000,
   2685.000000,
   2690.000000,
   2695.000000,
   2700.000000,
   2705.000000,
   2710.000000,
   2715.000000,
   2720.000000,
   2725.000000,
   2730.000000,
   2735.000000,
   2740.000000,
   2745.000000,
   2750.000000,
   2755.000000,
   2760.000000,
   2765.000000,
   2770.000000,
   2775.000000,
   2780.000000,
   2785.000000,
   2790.000000,
   2795.000000,
   2800.000000,
   2805.000000,
   2810.000000,
   2815.000000,
   2820.000000,
   2825.000000,
   2830.000000,
   2835.000000,
   2840.000000,
   2845.000000,
   2850.000000,
   2855.000000,
   2860.000000,
   2865.000000,
   2870.000000,
   2875.000000,
   2880.000000,
   2885.000000,
   2890.000000,
   2895.000000,
   2900.000000,
   2905.000000,
   2910.000000,
   2915.000000,
   2920.000000,
   2925.000000,
   2930.000000,
   2935.000000,
   2940.000000,
   2945.000000,
   2950.000000,
   2955.000000,
   2960.000000,
   2965.000000,
   2970.000000,
   2975.000000,
   2980.000000,
   2985.000000,
   2990.000000,
   2995.000000,
   3000.000000,
   3005.000000,
   3010.000000,
   3015.000000,
   3020.000000,
   3025.000000,
   3030.000000,
   3035.000000,
   3040.000000,
   3045.000000,
   3050.000000,
   3055.000000,
   3060.000000,
   3065.000000,
   3070.000000,
   3075.000000,
   3080.000000,
   3085.000000,
   3090.000000,
   3095.000000,
   3100.000000,
   3105.000000,
   3110.000000,
   3115.000000,
   3120.000000,
   3125.000000,
   3130.000000,
   3135.000000,
   3140.000000,
   3145.000000,
   3150.000000,
   3155.000000,
   3160.000000,
   3165.000000,
   3170.000000,
   3175.000000,
   3180.000000,
   3185.000000,
   3190.000000,
   3195.000000,
   3200.000000,
   3205.000000,
   3210.000000,
   3215.000000,
   3220.000000,
   3225.000000,
   3230.000000,
   3235.000000,
   3240.000000,
   3245.000000,
   3250.000000,
   3255.000000,
   3260.000000,
   3265.000000,
   3270.000000,
   3275.000000,
   3280.000000,
   3285.000000,
   3290.000000,
   3295.000000,
   3300.000000,
   3305.000000,
   3310.000000,
   3315.000000,
   3320.000000,
   3325.000000,
   3330.000000,
   3335.000000,
   3340.000000,
   3345.000000,
   3350.000000,
   3355.000000,
   3360.000000,
   3365.000000,
   3370.000000,
   3375.000000,
   3380.000000,
   3385.000000,
   3390.000000,
   3395.000000,
   3400.000000,
   3405.000000,
   3410.000000,
   3415.000000,
   3420.000000,
   3425.000000,
   3430.000000,
   3435.000000,
   3440.000000,
   3445.000000,
   3450.000000,
   3455.000000,
   3460.000000,
   3465.000000,
   3470.000000,
   3475.000000,
   3480.000000,
   3485.000000,
   3490.000000,
   3495.000000,
   3500.000000,
   3505.000000,
   3510.000000,
   3515.000000,
   3520.000000,
   3525.000000,
   3530.000000,
   3535.000000,
   3540.000000,
   3545.000000,
   3550.000000,
   3555.000000,
   3560.000000,
   3565.000000,
   3570.000000,
   3575.000000,
   3580.000000,
   3585.000000,
   3590.000000,
   3595.000000,
   3600.000000,
   3605.000000,
   3610.000000,
   3615.000000,
   3620.000000,
   3625.000000,
   3630.000000,
   3635.000000,
   3640.000000,
   3645.000000,
   3650.000000,
   3655.000000,
   3660.000000,
   3665.000000,
   3670.000000,
   3675.000000,
   3680.000000,
   3685.000000,
   3690.000000,
   3695.000000,
   3700.000000,
   3705.000000,
   3710.000000,
   3715.000000,
   3720.000000,
   3725.000000,
   3730.000000,
   3735.000000,
   3740.000000,
   3745.000000,
   3750.000000,
   3755.000000,
   3760.000000,
   3765.000000,
   3770.000000,
   3775.000000,
   3780.000000,
   3785.000000,
   3790.000000,
   3795.000000,
   3800.000000,
   3805.000000,
   3810.000000,
   3815.000000,
   3820.000000,
   3825.000000,
   3830.000000,
   3835.000000,
   3840.000000,
   3845.000000,
   3850.000000,
   3855.000000,
   3860.000000,
   3865.000000,
   3870.000000,
   3875.000000,
   3880.000000,
   3885.000000,
   3890.000000,
   3895.000000,
   3900.000000,
   3905.000000,
   3910.000000,
   3915.000000,
   3920.000000,
   3925.000000,
   3930.000000,
   3935.000000,
   3940.000000,
   3945.000000,
   3950.000000,
   3955.000000,
   3960.000000,
   3965.000000,
   3970.000000,
   3975.000000,
   3980.000000,
   3985.000000,
   3990.000000,
   3995.000000,
   4000.000000,
   4005.000000,
   4010.000000,
   4015.000000,
   4020.000000,
   4025.000000,
   4030.000000,
   4035.000000,
   4040.000000,
   4045.000000,
   4050.000000,
   4055.000000,
   4060.000000,
   4065.000000,
   4070.000000,
   4075.000000,
   4080.000000,
   4085.000000,
   4090.000000,
   4095.000000,
   4100.000000,
   4105.000000,
   4110.000000,
   4115.000000,
   4120.000000,
   4125.000000,
   4130.000000,
   4135.000000,
   4140.000000,
   4145.000000,
   4150.000000,
   4155.000000,
   4160.000000,
   4165.000000,
   4170.000000,
   4175.000000,
   4180.000000,
   4185.000000,
   4190.000000,
   4195.000000,
   4200.000000,
   4205.000000,
   4210.000000,
   4215.000000,
   4220.000000,
   4225.000000,
   4230.000000,
   4235.000000,
   4240.000000,
   4245.000000,
   4250.000000,
   4255.000000,
   4260.000000,
   4265.000000,
   4270.000000,
   4275.000000,
   4280.000000,
   4285.000000,
   4290.000000,
   4295.000000,
   4300.000000,
   4305.000000,
   4310.000000,
   4315.000000,
   4320.000000,
   4325.000000,
   4330.000000,
   4335.000000,
   4340.000000,
   4345.000000,
   4350.000000,
   4355.000000,
   4360.000000,
   4365.000000,
   4370.000000,
   4375.000000,
   4380.000000,
   4385.000000,
   4390.000000,
   4395.000000,
   4400.000000,
   4405.000000,
   4410.000000,
   4415.000000,
   4420.000000,
   4425.000000,
   4430.000000,
   4435.000000,
   4440.000000,
   4445.000000,
   4450.000000,
   4455.000000,
   4460.000000,
   4465.000000,
   4470.000000,
   4475.000000,
   4480.000000,
   4485.000000,
   4490.000000,
   4495.000000,
   4500.000000,
   4505.000000,
   4510.000000,
   4515.000000,
   4520.000000,
   4525.000000,
   4530.000000,
   4535.000000,
   4540.000000,
   4545.000000,
   4550.000000,
   4555.000000,
   4560.000000,
   4565.000000,
   4570.000000,
   4575.000000,
   4580.000000,
   4585.000000,
   4590.000000,
   4595.000000,
   4600.000000,
   4605.000000,
   4610.000000,
   4615.000000,
   4620.000000,
   4625.000000,
   4630.000000,
   4635.000000,
   4640.000000,
   4645.000000,
   4650.000000,
   4655.000000,
   4660.000000,
   4665.000000,
   4670.000000,
   4675.000000,
   4680.000000,
   4685.000000,
   4690.000000,
   4695.000000,
   4700.000000,
   4705.000000,
   4710.000000,
   4715.000000,
   4720.000000,
   4725.000000,
   4730.000000,
   4735.000000,
   4740.000000,
   4745.000000,
   4750.000000,
   4755.000000,
   4760.000000,
   4765.000000,
   4770.000000,
   4775.000000,
   4780.000000,
   4785.000000,
   4790.000000,
   4795.000000,
   4800.000000,
   4805.000000,
   4810.000000,
   4815.000000,
   4820.000000,
   4825.000000,
   4830.000000,
   4835.000000,
   4840.000000,
   4845.000000,
   4850.000000,
   4855.000000,
   4860.000000,
   4865.000000,
   4870.000000,
   4875.000000,
   4880.000000,
   4885.000000,
   4890.000000,
   4895.000000,
   4900.000000,
   4905.000000,
   4910.000000,
   4915.000000,
   4920.000000,
   4925.000000,
   4930.000000,
   4935.000000,
   4940.000000,
   4945.000000,
   4950.000000,
   4955.000000,
   4960.000000,
   4965.000000,
   4970.000000,
   4975.000000,
   4980.000000,
   4985.000000,
   4990.000000,
   4995.000000,
   5000.000000,
   5005.000000,
   5010.000000,
   5015.000000,
   5020.000000,
   5025.000000,
   5030.000000,
   5035.000000,
   5040.000000,
   5045.000000,
   5050.000000,
   5055.000000,
   5060.000000,
   5065.000000,
   5070.000000,
   5075.000000,
   5080.000000,
   5085.000000,
   5090.000000,
   5095.000000,
   5100.000000,
   5105.000000,
   5110.000000,
   5115.000000,
   5120.000000,
   5125.000000,
   5130.000000,
   5135.000000,
   5140.000000,
   5145.000000,
   5150.000000,
   5155.000000,
   5160.000000,
   5165.000000,
   5170.000000,
   5175.000000,
   5180.000000,
   5185.000000,
   5190.000000,
   5195.000000,
   5200.000000,
   5205.000000,
   5210.000000,
   5215.000000,
   5220.000000,
   5225.000000,
   5230.000000,
   5235.000000,
   5240.000000,
   5245.000000,
   5250.000000,
   5255.000000,
   5260.000000,
   5265.000000,
   5270.000000,
   5275.000000,
   5280.000000,
   5285.000000,
   5290.000000,
   5295.000000,
   5300.000000,
   5305.000000,
   5310.000000,
   5315.000000,
   5320.000000,
   5325.000000,
   5330.000000,
   5335.000000,
   5340.000000,
   5345.000000,
   5350.000000,
   5355.000000,
   5360.000000,
   5365.000000,
   5370.000000,
   5375.000000,
   5380.000000,
   5385.000000,
   5390.000000,
   5395.000000,
   5400.000000,
   5405.000000,
   5410.000000,
   5415.000000,
   5420.000000,
   5425.000000,
   5430.000000,
   5435.000000,
   5440.000000,
   5445.000000,
   5450.000000,
   5455.000000,
   5460.000000,
   5465.000000,
   5470.000000,
   5475.000000,
   5480.000000,
   5485.000000,
   5490.000000,
   5495.000000,
   5500.000000,
   5505.000000,
   5510.000000,
   5515.000000,
   5520.000000,
   5525.000000,
   5530.000000,
   5535.000000,
   5540.000000,
   5545.000000,
   5550.000000,
   5555.000000,
   5560.000000,
   5565.000000,
   5570.000000,
   5575.000000,
   5580.000000,
   5585.000000,
   5590.000000,
   5595.000000,
   5600.000000,
   5605.000000,
   5610.000000,
   5615.000000,
   5620.000000,
   5625.000000,
   5630.000000,
   5635.000000,
   5640.000000,
   5645.000000,
   5650.000000,
   5655.000000,
   5660.000000,
   5665.000000,
   5670.000000,
   5675.000000,
   5680.000000,
   5685.000000,
   5690.000000,
   5695.000000,
   5700.000000,
   5705.000000,
   5710.000000,
   5715.000000,
   5720.000000,
   5725.000000,
   5730.000000,
   5735.000000,
   5740.000000,
   5745.000000,
   5750.000000,
   5755.000000,
   5760.000000,
   5765.000000,
   5770.000000,
   5775.000000,
   5780.000000,
   5785.000000,
   5790.000000,
   5795.000000,
   5800.000000,
   5805.000000,
   5810.000000,
   5815.000000,
   5820.000000,
   5825.000000,
   5830.000000,
   5835.000000,
   5840.000000,
   5845.000000,
   5850.000000,
   5855.000000,
   5860.000000,
   5865.000000,
   5870.000000,
   5875.000000,
   5880.000000,
   5885.000000,
   5890.000000,
   5895.000000,
   5900.000000,
   5905.000000,
   5910.000000,
   5915.000000,
   5920.000000,
   5925.000000,
   5930.000000,
   5935.000000,
   5940.000000,
   5945.000000,
   5950.000000,
   5955.000000,
   5960.000000,
   5965.000000,
   5970.000000,
   5975.000000,
   5980.000000,
   5985.000000,
   5990.000000,
   5995.000000,
   6000.000000,
   6005.000000,
   6010.000000,
   6015.000000,
   6020.000000,
   6025.000000,
   6030.000000,
   6035.000000,
   6040.000000,
   6045.000000,
   6050.000000,
   6055.000000,
   6060.000000,
   6065.000000,
   6070.000000,
   6075.000000,
   6080.000000,
   6085.000000,
   6090.000000,
   6095.000000,
   6100.000000,
   6105.000000,
   6110.000000,
   6115.000000,
   6120.000000,
   6125.000000,
   6130.000000,
   6135.000000,
   6140.000000,
   6145.000000,
   6150.000000,
   6155.000000,
   6160.000000,
   6165.000000,
   6170.000000,
   6175.000000,
   6180.000000,
   6185.000000,
   6190.000000,
   6195.000000,
   6200.000000,
   6205.000000,
   6210.000000,
   6215.000000,
   6220.000000,
   6225.000000,
   6230.000000,
   6235.000000,
   6240.000000,
   6245.000000,
   6250.000000,
   6255.000000,
   6260.000000,
   6265.000000,
   6270.000000,
   6275.000000,
   6280.000000,
   6285.000000,
   6290.000000,
   6295.000000,
   6300.000000,
   6305.000000,
   6310.000000,
   6315.000000,
   6320.000000,
   6325.000000,
   6330.000000,
   6335.000000,
   6340.000000,
   6345.000000,
   6350.000000,
   6355.000000,
   6360.000000,
   6365.000000,
   6370.000000,
   6375.000000,
   6380.000000,
   6385.000000,
   6390.000000,
   6395.000000,
   6400.000000,
   6405.000000,
   6410.000000,
   6415.000000,
   6420.000000,
   6425.000000,
   6430.000000,
   6435.000000,
   6440.000000,
   6445.000000,
   6450.000000,
   6455.000000,
   6460.000000,
   6465.000000,
   6470.000000,
   6475.000000,
   6480.000000,
   6485.000000,
   6490.000000,
   6495.000000,
   6500.000000,
   6505.000000,
   6510.000000,
   6515.000000,
   6520.000000,
   6525.000000,
   6530.000000,
   6535.000000,
   6540.000000,
   6545.000000,
   6550.000000,
   6555.000000,
   6560.000000,
   6565.000000,
   6570.000000,
   6575.000000,
   6580.000000,
   6585.000000,
   6590.000000,
   6595.000000,
   6600.000000,
   6605.000000,
   6610.000000,
   6615.000000,
   6620.000000,
   6625.000000,
   6630.000000,
   6635.000000,
   6640.000000,
   6645.000000,
   6650.000000,
   6655.000000,
   6660.000000,
   6665.000000,
   6670.000000,
   6675.000000,
   6680.000000,
   6685.000000,
   6690.000000,
   6695.000000,
   6700.000000,
   6705.000000,
   6710.000000,
   6715.000000,
   6720.000000,
   6725.000000,
   6730.000000,
   6735.000000,
   6740.000000,
   6745.000000,
   6750.000000,
   6755.000000,
   6760.000000,
   6765.000000,
   6770.000000,
   6775.000000,
   6780.000000,
   6785.000000,
   6790.000000,
   6795.000000,
   6800.000000,
   6805.000000,
   6810.000000,
   6815.000000,
   6820.000000,
   6825.000000,
   6830.000000,
   6835.000000,
   6840.000000,
   6845.000000,
   6850.000000,
   6855.000000,
   6860.000000,
   6865.000000,
   6870.000000,
   6875.000000,
   6880.000000,
   6885.000000,
   6890.000000,
   6895.000000,
   6900.000000,
   6905.000000,
   6910.000000,
   6915.000000,
   6920.000000,
   6925.000000,
   6930.000000,
   6935.000000,
   6940.000000,
   6945.000000,
   6950.000000,
   6955.000000,
   6960.000000,
   6965.000000,
   6970.000000,
   6975.000000,
   6980.000000,
   6985.000000,
   6990.000000,
   6995.000000,
   7000.000000,
   7005.000000,
   7010.000000,
   7015.000000,
   7020.000000,
   7025.000000,
   7030.000000,
   7035.000000,
   7040.000000,
   7045.000000,
   7050.000000,
   7055.000000,
   7060.000000,
   7065.000000,
   7070.000000,
   7075.000000,
   7080.000000,
   7085.000000,
   7090.000000,
   7095.000000,
   7100.000000,
   7105.000000,
   7110.000000,
   7115.000000,
   7120.000000,
   7125.000000,
   7130.000000,
   7135.000000,
   7140.000000,
   7145.000000,
   7150.000000,
   7155.000000,
   7160.000000,
   7165.000000,
   7170.000000,
   7175.000000,
   7180.000000,
   7185.000000,
   7190.000000,
   7195.000000,
   7200.000000,
   7205.000000,
   7210.000000,
   7215.000000,
   7220.000000,
   7225.000000,
   7230.000000,
   7235.000000,
   7240.000000,
   7245.000000,
   7250.000000,
   7255.000000,
   7260.000000,
   7265.000000,
   7270.000000,
   7275.000000,
   7280.000000,
   7285.000000,
   7290.000000,
   7295.000000,
   7300.000000,
   7305.000000,
   7310.000000,
   7315.000000,
   7320.000000,
   7325.000000,
   7330.000000,
   7335.000000,
   7340.000000,
   7345.000000,
   7350.000000,
   7355.000000,
   7360.000000,
   7365.000000,
   7370.000000,
   7375.000000,
   7380.000000,
   7385.000000,
   7390.000000,
   7395.000000,
   7400.000000,
   7405.000000,
   7410.000000,
   7415.000000,
   7420.000000,
   7425.000000,
   7430.000000,
   7435.000000,
   7440.000000,
   7445.000000,
   7450.000000,
   7455.000000,
   7460.000000,
   7465.000000,
   7470.000000,
   7475.000000,
   7480.000000,
   7485.000000,
   7490.000000,
   7495.000000,
   7500.000000,
   7505.000000,
   7510.000000,
   7515.000000,
   7520.000000,
   7525.000000,
   7530.000000,
   7535.000000,
   7540.000000,
   7545.000000,
   7550.000000,
   7555.000000,
   7560.000000,
   7565.000000,
   7570.000000,
   7575.000000,
   7580.000000,
   7585.000000,
   7590.000000,
   7595.000000,
   7600.000000,
   7605.000000,
   7610.000000,
   7615.000000,
   7620.000000,
   7625.000000,
   7630.000000,
   7635.000000,
   7640.000000,
   7645.000000,
   7650.000000,
   7655.000000,
   7660.000000,
   7665.000000,
   7670.000000,
   7675.000000,
   7680.000000,
   7685.000000,
   7690.000000,
   7695.000000,
   7700.000000,
   7705.000000,
   7710.000000,
   7715.000000,
   7720.000000,
   7725.000000,
   7730.000000,
   7735.000000,
   7740.000000,
   7745.000000,
   7750.000000,
   7755.000000,
   7760.000000,
   7765.000000,
   7770.000000,
   7775.000000,
   7780.000000,
   7785.000000,
   7790.000000,
   7795.000000,
   7800.000000,
   7805.000000,
   7810.000000,
   7815.000000,
   7820.000000,
   7825.000000,
   7830.000000,
   7835.000000,
   7840.000000,
   7845.000000,
   7850.000000,
   7855.000000,
   7860.000000,
   7865.000000,
   7870.000000,
   7875.000000,
   7880.000000,
   7885.000000,
   7890.000000,
   7895.000000,
   7900.000000,
   7905.000000,
   7910.000000,
   7915.000000,
   7920.000000,
   7925.000000,
   7930.000000,
   7935.000000,
   7940.000000,
   7945.000000,
   7950.000000,
   7955.000000,
   7960.000000,
   7965.000000,
   7970.000000,
   7975.000000,
   7980.000000,
   7985.000000,
   7990.000000,
   7995.000000,
   8000.000000,
   8005.000000,
   8010.000000,
   8015.000000,
   8020.000000,
   8025.000000,
   8030.000000,
   8035.000000,
   8040.000000,
   8045.000000,
   8050.000000,
   8055.000000,
   8060.000000,
   8065.000000,
   8070.000000,
   8075.000000,
   8080.000000,
   8085.000000,
   8090.000000,
   8095.000000,
   8100.000000,
   8105.000000,
   8110.000000,
   8115.000000,
   8120.000000,
   8125.000000,
   8130.000000,
   8135.000000,
   8140.000000,
   8145.000000,
   8150.000000,
   8155.000000,
   8160.000000,
   8165.000000,
   8170.000000,
   8175.000000,
   8180.000000,
   8185.000000,
   8190.000000,
   8195.000000,
   8200.000000,
   8205.000000,
   8210.000000,
   8215.000000,
   8220.000000,
   8225.000000,
   8230.000000,
   8235.000000,
   8240.000000,
   8245.000000,
   8250.000000,
   8255.000000,
   8260.000000,
   8265.000000,
   8270.000000,
   8275.000000,
   8280.000000,
   8285.000000,
   8290.000000,
   8295.000000,
   8300.000000,
   8305.000000,
   8310.000000,
   8315.000000,
   8320.000000,
   8325.000000,
   8330.000000,
   8335.000000,
   8340.000000,
   8345.000000,
   8350.000000,
   8355.000000,
   8360.000000,
   8365.000000,
   8370.000000,
   8375.000000,
   8380.000000,
   8385.000000,
   8390.000000,
   8395.000000,
   8400.000000,
   8405.000000,
   8410.000000,
   8415.000000,
   8420.000000,
   8425.000000,
   8430.000000,
   8435.000000,
   8440.000000,
   8445.000000,
   8450.000000,
   8455.000000,
   8460.000000,
   8465.000000,
   8470.000000,
   8475.000000,
   8480.000000,
   8485.000000,
   8490.000000,
   8495.000000,
   8500.000000,
   8505.000000,
   8510.000000,
   8515.000000,
   8520.000000,
   8525.000000,
   8530.000000,
   8535.000000,
   8540.000000,
   8545.000000,
   8550.000000,
   8555.000000,
   8560.000000,
   8565.000000,
   8570.000000,
   8575.000000,
   8580.000000,
   8585.000000,
   8590.000000,
   8595.000000,
   8600.000000,
   8605.000000,
   8610.000000,
   8615.000000,
   8620.000000,
   8625.000000,
   8630.000000,
   8635.000000,
   8640.000000,
   8645.000000,
   8650.000000,
   8655.000000,
   8660.000000,
   8665.000000,
   8670.000000,
   8675.000000,
   8680.000000,
   8685.000000,
   8690.000000,
   8695.000000,
   8700.000000,
   8705.000000,
   8710.000000,
   8715.000000,
   8720.000000,
   8725.000000,
   8730.000000,
   8735.000000,
   8740.000000,
   8745.000000,
   8750.000000,
   8755.000000,
   8760.000000,
   8765.000000,
   8770.000000,
   8775.000000,
   8780.000000,
   8785.000000,
   8790.000000,
   8795.000000,
   8800.000000,
   8805.000000,
   8810.000000,
   8815.000000,
   8820.000000,
   8825.000000,
   8830.000000,
   8835.000000,
   8840.000000,
   8845.000000,
   8850.000000,
   8855.000000,
   8860.000000,
   8865.000000,
   8870.000000,
   8875.000000,
   8880.000000,
   8885.000000,
   8890.000000,
   8895.000000,
   8900.000000,
   8905.000000,
   8910.000000,
   8915.000000,
   8920.000000,
   8925.000000,
   8930.000000,
   8935.000000,
   8940.000000,
   8945.000000,
   8950.000000,
   8955.000000,
   8960.000000,
   8965.000000,
   8970.000000,
   8975.000000,
   8980.000000,
   8985.000000,
   8990.000000,
   8995.000000,
   9000.000000,
   9005.000000,
   9010.000000,
   9015.000000,
   9020.000000,
   9025.000000,
   9030.000000,
   9035.000000,
   9040.000000,
   9045.000000,
   9050.000000,
   9055.000000,
   9060.000000,
   9065.000000,
   9070.000000,
   9075.000000,
   9080.000000,
   9085.000000,
   9090.000000,
   9095.000000,
   9100.000000,
   9105.000000,
   9110.000000,
   9115.000000,
   9120.000000,
   9125.000000,
   9130.000000,
   9135.000000,
   9140.000000,
   9145.000000,
   9150.000000,
   9155.000000,
   9160.000000,
   9165.000000,
   9170.000000,
   9175.000000,
   9180.000000,
   9185.000000,
   9190.000000,
   9195.000000,
   9200.000000,
   9205.000000,
   9210.000000,
   9215.000000,
   9220.000000,
   9225.000000,
   9230.000000,
   9235.000000,
   9240.000000,
   9245.000000,
   9250.000000,
   9255.000000,
   9260.000000,
   9265.000000,
   9270.000000,
   9275.000000,
   9280.000000,
   9285.000000,
   9290.000000,
   9295.000000,
   9300.000000,
   9305.000000,
   9310.000000,
   9315.000000,
   9320.000000,
   9325.000000,
   9330.000000,
   9335.000000,
   9340.000000,
   9345.000000,
   9350.000000,
   9355.000000,
   9360.000000,
   9365.000000,
   9370.000000,
   9375.000000,
   9380.000000,
   9385.000000,
   9390.000000,
   9395.000000,
   9400.000000,
   9405.000000,
   9410.000000,
   9415.000000,
   9420.000000,
   9425.000000,
   9430.000000,
   9435.000000,
   9440.000000,
   9445.000000,
   9450.000000,
   9455.000000,
   9460.000000,
   9465.000000,
   9470.000000,
   9475.000000,
   9480.000000,
   9485.000000,
   9490.000000,
   9495.000000,
   9500.000000,
   9505.000000,
   9510.000000,
   9515.000000,
   9520.000000,
   9525.000000,
   9530.000000,
   9535.000000,
   9540.000000,
   9545.000000,
   9550.000000,
   9555.000000,
   9560.000000,
   9565.000000,
   9570.000000,
   9575.000000,
   9580.000000,
   9585.000000,
   9590.000000,
   9595.000000,
   9600.000000,
   9605.000000,
   9610.000000,
   9615.000000,
   9620.000000,
   9625.000000,
   9630.000000,
   9635.000000,
   9640.000000,
   9645.000000,
   9650.000000,
   9655.000000,
   9660.000000,
   9665.000000,
   9670.000000,
   9675.000000,
   9680.000000,
   9685.000000,
   9690.000000,
   9695.000000,
   9700.000000,
   9705.000000,
   9710.000000,
   9715.000000,
   9720.000000,
   9725.000000,
   9730.000000,
   9735.000000,
   9740.000000,
   9745.000000,
   9750.000000,
   9755.000000,
   9760.000000,
   9765.000000,
   9770.000000,
   9775.000000,
   9780.000000,
   9785.000000,
   9790.000000,
   9795.000000,
   9800.000000,
   9805.000000,
   9810.000000,
   9815.000000,
   9820.000000,
   9825.000000,
   9830.000000,
   9835.000000,
   9840.000000,
   9845.000000,
   9850.000000,
   9855.000000,
   9860.000000,
   9865.000000,
   9870.000000,
   9875.000000,
   9880.000000,
   9885.000000,
   9890.000000,
   9895.000000,
   9900.000000,
   9905.000000,
   9910.000000,
   9915.000000,
   9920.000000,
   9925.000000,
   9930.000000,
   9935.000000,
   9940.000000,
   9945.000000,
   9950.000000,
   9955.000000,
   9960.000000,
   9965.000000,
   9970.000000,
   9975.000000,
   9980.000000,
   9985.000000,
   9990.000000,
   9995.000000,
   10000.000000,
   10005.000000,
   10010.000000,
   10015.000000,
   10020.000000,
   10025.000000,
   10030.000000,
   10035.000000,
   10040.000000,
   10045.000000,
   10050.000000,
   10055.000000,
   10060.000000,
   10065.000000,
   10070.000000,
   10075.000000,
   10080.000000,
   10085.000000,
   10090.000000,
   10095.000000,
   10100.000000,
   10105.000000,
   10110.000000,
   10115.000000,
   10120.000000,
   10125.000000,
   10130.000000,
   10135.000000,
   10140.000000,
   10145.000000,
   10150.000000,
   10155.000000,
   10160.000000,
   10165.000000,
   10170.000000,
   10175.000000,
   10180.000000,
   10185.000000,
   10190.000000,
   10195.000000,
   10200.000000,
   10205.000000,
   10210.000000,
   10215.000000,
   10220.000000,
   10225.000000,
   10230.000000,
   10235.000000,
   10240.000000,
   10245.000000,
   10250.000000,
   10255.000000,
   10260.000000,
   10265.000000,
   10270.000000,
   10275.000000,
   10280.000000,
   10285.000000,
   10290.000000,
   10295.000000,
   10300.000000,
   10305.000000,
   10310.000000,
   10315.000000,
   10320.000000,
   10325.000000,
   10330.000000,
   10335.000000,
   10340.000000,
   10345.000000,
   10350.000000,
   10355.000000,
   10360.000000,
   10365.000000,
   10370.000000,
   10375.000000,
   10380.000000,
   10385.000000,
   10390.000000,
   10395.000000,
   10400.000000,
   10405.000000,
   10410.000000,
   10415.000000,
   10420.000000,
   10425.000000,
   10430.000000,
   10435.000000,
   10440.000000,
   10445.000000,
   10450.000000,
   10455.000000,
   10460.000000,
   10465.000000,
   10470.000000,
   10475.000000,
   10480.000000,
   10485.000000,
   10490.000000,
   10495.000000,
   10500.000000,
   10505.000000,
   10510.000000,
   10515.000000,
   10520.000000,
   10525.000000,
   10530.000000,
   10535.000000,
   10540.000000,
   10545.000000,
   10550.000000,
   10555.000000,
   10560.000000,
   10565.000000,
   10570.000000,
   10575.000000,
   10580.000000,
   10585.000000,
   10590.000000,
   10595.000000,
   10600.000000,
   10605.000000,
   10610.000000,
   10615.000000,
   10620.000000
};

static double _g0i_flux[] = {
   0.000000,
   0.000000,
   0.000000,
   0.000000,
   0.000000,
   0.000000,
   0.000000,
   0.000000,
   0.000000,
   0.000000,
   0.000000,
   0.000000,
   0.000000,
   0.000000,
   0.000000,
   0.000000,
   0.000000,
   0.000000,
   0.000000,
   0.000000,
   0.000000,
   0.000000,
   0.000000,
   0.000000,
   0.000000,
   0.000000,
   0.000000,
   0.000000,
   0.000000,
   0.000000,
   0.000000,
   0.000000,
   0.000000,
   0.000000,
   0.000000,
   0.000000,
   0.000000,
   0.000000,
   0.000000,
   0.000000,
   0.000000,
   0.000000,
   0.000000,
   0.000000,
   0.000000,
   0.000000,
   0.000000,
   0.000000,
   0.000000,
   0.000000,
   0.000000,
   0.000000,
   0.000000,
   0.000000,
   0.000000,
   0.000000,
   0.000000,
   0.000000,
   0.000000,
   0.000000,
   0.000000,
   0.000000,
   0.000000,
   0.000000,
   0.000000,
   0.000000,
   0.000000,
   0.000000,
   0.000000,
   0.000000,
   0.000000,
   0.000000,
   0.000000,
   0.000000,
   0.000000,
   0.000000,
   0.000000,
   0.000000,
   0.000000,
   0.000000,
   0.000000,
   0.000000,
   0.000000,
   0.000000,
   0.000000,
   0.000000,
   0.000000,
   0.000000,
   0.000000,
   0.000000,
   0.000000,
   0.000001,
   0.000002,
   0.000003,
   0.000004,
   0.000004,
   0.000005,
   0.000005,
   0.000004,
   0.000002,
   0.000000,
   0.000000,
   0.000000,
   0.000000,
   0.000000,
   0.000000,
   0.000000,
   0.000000,
   0.000000,
   0.000000,
   0.000000,
   0.000012,
   0.000026,
   0.000040,
   0.000052,
   0.000062,
   0.000066,
   0.000064,
   0.000053,
   0.000032,
   0.000000,
   0.000000,
   0.000000,
   0.000000,
   0.000000,
   0.000000,
   0.000000,
   0.000000,
   0.000000,
   0.000000,
   0.000000,
   0.000169,
   0.000382,
   0.000635,
   0.000920,
   0.001232,
   0.001566,
   0.001916,
   0.002276,
   0.002640,
   0.003003,
   0.003359,
   0.003707,
   0.004045,
   0.004371,
   0.004685,
   0.004984,
   0.005267,
   0.005533,
   0.005779,
   0.006006,
   0.006213,
   0.006410,
   0.006608,
   0.006819,
   0.007055,
   0.007327,
   0.007647,
   0.008026,
   0.008476,
   0.009009,
   0.009630,
   0.010325,
   0.011072,
   0.011850,
   0.012639,
   0.013418,
   0.014166,
   0.014863,
   0.015486,
   0.016016,
   0.016440,
   0.016779,
   0.017064,
   0.017323,
   0.017587,
   0.017886,
   0.018249,
   0.018705,
   0.019286,
   0.020020,
   0.020926,
   0.021977,
   0.023136,
   0.024363,
   0.025620,
   0.026870,
   0.028074,
   0.029195,
   0.030193,
   0.031031,
   0.031681,
   0.032160,
   0.032494,
   0.032710,
   0.032835,
   0.032896,
   0.032919,
   0.032932,
   0.032961,
   0.033033,
   0.033167,
   0.033350,
   0.033560,
   0.033777,
   0.033980,
   0.034147,
   0.034257,
   0.034289,
   0.034221,
   0.034034,
   0.033714,
   0.033287,
   0.032786,
   0.032244,
   0.031696,
   0.031174,
   0.030713,
   0.030346,
   0.030107,
   0.030030,
   0.030136,
   0.030402,
   0.030793,
   0.031272,
   0.031805,
   0.032356,
   0.032890,
   0.033371,
   0.033764,
   0.034034,
   0.034155,
   0.034140,
   0.034015,
   0.033803,
   0.033527,
   0.033211,
   0.032880,
   0.032557,
   0.032267,
   0.032032,
   0.031873,
   0.031794,
   0.031795,
   0.031876,
   0.032037,
   0.032277,
   0.032597,
   0.032996,
   0.033475,
   0.034034,
   0.034669,
   0.035366,
   0.036108,
   0.036875,
   0.037651,
   0.038418,
   0.039159,
   0.039854,
   0.040488,
   0.041041,
   0.041501,
   0.041875,
   0.042172,
   0.042405,
   0.042583,
   0.042718,
   0.042821,
   0.042902,
   0.042972,
   0.043043,
   0.043123,
   0.043212,
   0.043309,
   0.043412,
   0.043518,
   0.043626,
   0.043735,
   0.043842,
   0.043946,
   0.044044,
   0.044139,
   0.044247,
   0.044389,
   0.044585,
   0.044856,
   0.045222,
   0.045704,
   0.046322,
   0.047097,
   0.048048,
   0.049188,
   0.050494,
   0.051933,
   0.053474,
   0.055085,
   0.056733,
   0.058387,
   0.060014,
   0.061584,
   0.063063,
   0.064423,
   0.065649,
   0.066727,
   0.067644,
   0.068389,
   0.068947,
   0.069307,
   0.069456,
   0.069381,
   0.069069,
   0.068517,
   0.067755,
   0.066826,
   0.065771,
   0.064629,
   0.063442,
   0.062250,
   0.061096,
   0.060018,
   0.059059,
   0.058253,
   0.057612,
   0.057140,
   0.056845,
   0.056730,
   0.056801,
   0.057064,
   0.057525,
   0.058188,
   0.059059,
   0.060142,
   0.061429,
   0.062913,
   0.064585,
   0.066436,
   0.068457,
   0.070641,
   0.072978,
   0.075460,
   0.078078,
   0.080819,
   0.083651,
   0.086536,
   0.089437,
   0.092317,
   0.095139,
   0.097866,
   0.100461,
   0.102886,
   0.105105,
   0.107092,
   0.108873,
   0.110484,
   0.111962,
   0.113345,
   0.114669,
   0.115971,
   0.117290,
   0.118660,
   0.120120,
   0.121697,
   0.123380,
   0.125147,
   0.126979,
   0.128853,
   0.130749,
   0.132647,
   0.134525,
   0.136362,
   0.138138,
   0.139838,
   0.141472,
   0.143056,
   0.144608,
   0.146143,
   0.147679,
   0.149231,
   0.150817,
   0.152452,
   0.154154,
   0.155932,
   0.157772,
   0.159653,
   0.161553,
   0.163451,
   0.165326,
   0.167156,
   0.168922,
   0.170601,
   0.172172,
   0.173617,
   0.174930,
   0.176106,
   0.177141,
   0.178032,
   0.178774,
   0.179364,
   0.179798,
   0.180071,
   0.180180,
   0.180132,
   0.179977,
   0.179775,
   0.179589,
   0.179477,
   0.179502,
   0.179724,
   0.180204,
   0.181003,
   0.217605,
   0.227252,
   0.232772,
   0.230894,
   0.222659,
   0.211756,
   0.208170,
   0.218471,
   0.229287,
   0.227876,
   0.223958,
   0.228817,
   0.237510,
   0.242180,
   0.239523,
   0.230177,
   0.226004,
   0.236620,
   0.251434,
   0.258270,
   0.271374,
   0.266540,
   0.257258,
   0.244384,
   0.242979,
   0.262292,
   0.274137,
   0.254643,
   0.234622,
   0.244856,
   0.261317,
   0.255924,
   0.239178,
   0.228397,
   0.229566,
   0.243094,
   0.258425,
   0.265907,
   0.270494,
   0.278267,
   0.285241,
   0.286418,
   0.282820,
   0.278483,
   0.283489,
   0.302065,
   0.308968,
   0.285580,
   0.269220,
   0.292442,
   0.312781,
   0.288920,
   0.259152,
   0.265495,
   0.285247,
   0.288537,
   0.281525,
   0.276667,
   0.275555,
   0.277119,
   0.280495,
   0.285829,
   0.297562,
   0.306899,
   0.300057,
   0.295252,
   0.306147,
   0.327215,
   0.349632,
   0.341843,
   0.339096,
   0.334581,
   0.325635,
   0.313397,
   0.314598,
   0.306674,
   0.293244,
   0.274877,
   0.301630,
   0.337895,
   0.337630,
   0.314074,
   0.299462,
   0.312053,
   0.340708,
   0.358281,
   0.336019,
   0.344291,
   0.363808,
   0.357397,
   0.359239,
   0.380173,
   0.392851,
   0.399168,
   0.411056,
   0.408631,
   0.398606,
   0.404727,
   0.437069,
   0.462471,
   0.457180,
   0.417809,
   0.425993,
   0.462134,
   0.456766,
   0.447358,
   0.431571,
   0.418277,
   0.437877,
   0.406066,
   0.407000,
   0.441829,
   0.432967,
   0.444935,
   0.468982,
   0.521919,
   0.563317,
   0.530730,
   0.468913,
   0.452741,
   0.499892,
   0.552357,
   0.559106,
   0.520855,
   0.473271,
   0.411343,
   0.375203,
   0.370066,
   0.411026,
   0.453672,
   0.472935,
   0.478312,
   0.487246,
   0.506944,
   0.499845,
   0.493714,
   0.469579,
   0.446250,
   0.449758,
   0.482693,
   0.512910,
   0.524339,
   0.525444,
   0.491091,
   0.426938,
   0.321963,
   0.218697,
   0.220896,
   0.315371,
   0.404526,
   0.457746,
   0.465662,
   0.390461,
   0.262108,
   0.244011,
   0.386546,
   0.539802,
   0.614535,
   0.629040,
   0.625166,
   0.640018,
   0.665515,
   0.712886,
   0.752917,
   0.754125,
   0.724725,
   0.690727,
   0.717429,
   0.741738,
   0.728695,
   0.717777,
   0.719005,
   0.732999,
   0.729828,
   0.708165,
   0.661564,
   0.682635,
   0.765206,
   0.821828,
   0.764691,
   0.693034,
   0.721951,
   0.771916,
   0.785612,
   0.737163,
   0.692201,
   0.687205,
   0.761064,
   0.800007,
   0.786419,
   0.760740,
   0.765781,
   0.802932,
   0.800952,
   0.729594,
   0.673655,
   0.690000,
   0.741378,
   0.780620,
   0.756676,
   0.727656,
   0.749191,
   0.797583,
   0.819428,
   0.806787,
   0.765086,
   0.779913,
   0.785244,
   0.810867,
   0.797701,
   0.786525,
   0.814053,
   0.842101,
   0.848098,
   0.810189,
   0.828365,
   0.835056,
   0.787252,
   0.734250,
   0.690042,
   0.638026,
   0.656179,
   0.718313,
   0.799300,
   0.854876,
   0.871961,
   0.868642,
   0.775956,
   0.690040,
   0.770877,
   0.856202,
   0.928607,
   0.971102,
   0.958606,
   0.901109,
   0.893851,
   0.879126,
   0.827227,
   0.827368,
   0.825003,
   0.830148,
   0.843549,
   0.848043,
   0.823412,
   0.828567,
   0.852802,
   0.870267,
   0.890349,
   0.885033,
   0.876007,
   0.877992,
   0.851833,
   0.838474,
   0.849819,
   0.896886,
   0.982709,
   0.989678,
   0.956237,
   0.921336,
   0.953000,
   1.025712,
   1.070581,
   1.048434,
   0.991734,
   0.934651,
   0.877344,
   0.876747,
   0.933418,
   0.957755,
   0.919865,
   0.874876,
   0.894933,
   0.940764,
   0.976573,
   1.000985,
   0.977436,
   0.916130,
   0.917633,
   0.941968,
   0.972463,
   0.996190,
   1.036350,
   1.056230,
   1.026182,
   1.023690,
   1.013237,
   1.003429,
   1.022007,
   1.047165,
   1.022693,
   1.009569,
   1.011810,
   1.009169,
   0.944642,
   0.951980,
   1.021792,
   1.049765,
   1.077903,
   1.079635,
   1.055093,
   1.007687,
   0.987985,
   0.997363,
   1.044707,
   1.068513,
   1.039070,
   0.990522,
   1.001180,
   1.038116,
   1.069363,
   1.069438,
   1.030061,
   0.990276,
   0.986377,
   1.039779,
   1.068747,
   1.056779,
   1.043169,
   1.044872,
   1.050521,
   1.035612,
   1.021784,
   1.034444,
   1.058825,
   1.044403,
   1.025189,
   1.030473,
   1.031300,
   1.030524,
   1.012200,
   0.956846,
   0.825561,
   0.727476,
   0.796084,
   0.887395,
   0.921858,
   0.939431,
   0.922695,
   0.951494,
   1.008755,
   1.028115,
   1.034476,
   1.004536,
   0.955060,
   0.889702,
   0.934801,
   1.020824,
   1.008163,
   1.011773,
   1.059393,
   1.077792,
   1.049081,
   1.032672,
   1.048291,
   1.046329,
   1.031404,
   0.962568,
   0.939627,
   0.984010,
   0.984695,
   0.968403,
   0.940726,
   0.937708,
   0.904749,
   0.916075,
   0.966738,
   0.999667,
   0.992113,
   0.965953,
   0.993831,
   1.011920,
   1.050258,
   1.083833,
   1.042378,
   1.000193,
   0.972812,
   0.962550,
   0.998056,
   1.039639,
   1.025226,
   0.988149,
   0.996610,
   1.006820,
   1.018624,
   0.994641,
   0.944957,
   0.937852,
   0.958058,
   0.963592,
   0.958229,
   0.951847,
   0.973353,
   0.992007,
   0.901008,
   0.846803,
   0.932804,
   0.984542,
   0.933402,
   0.894839,
   0.889520,
   0.914655,
   0.917720,
   0.942854,
   0.981881,
   0.999636,
   0.939426,
   0.903583,
   0.933316,
   0.982695,
   0.988733,
   0.961448,
   0.960401,
   0.926476,
   0.845195,
   0.831310,
   0.877162,
   0.939344,
   0.995299,
   1.041520,
   1.015683,
   0.987154,
   0.992055,
   0.996617,
   0.981819,
   0.969169,
   0.939793,
   0.934887,
   0.941767,
   0.954454,
   0.989818,
   1.012058,
   1.035734,
   1.016807,
   0.970995,
   0.963543,
   0.994626,
   1.003390,
   1.016861,
   1.009803,
   0.967350,
   0.938901,
   0.920822,
   0.937536,
   0.963519,
   0.964991,
   0.956139,
   0.955144,
   0.982368,
   1.030065,
   1.020902,
   1.011734,
   1.013296,
   1.026932,
   1.014014,
   0.999634,
   0.972677,
   0.978591,
   1.004779,
   1.003836,
   0.999803,
   0.991615,
   0.977500,
   0.979327,
   1.011562,
   1.025243,
   0.978394,
   0.961582,
   0.986587,
   1.017599,
   1.023760,
   1.036748,
   1.035599,
   1.024065,
   1.004870,
   0.994577,
   1.012344,
   1.025912,
   0.992866,
   0.955288,
   0.966649,
   0.979318,
   1.011108,
   1.037121,
   1.009502,
   1.002479,
   1.016379,
   1.023785,
   1.013624,
   0.998398,
   1.017652,
   1.029875,
   0.976451,
   0.927328,
   0.947445,
   0.984651,
   1.008513,
   0.989276,
   0.970434,
   0.990836,
   1.014428,
   1.006203,
   0.972247,
   0.956985,
   0.987067,
   1.017064,
   1.027527,
   1.022407,
   1.024452,
   1.025025,
   1.011815,
   1.005235,
   1.000944,
   1.005343,
   1.008701,
   1.013061,
   0.996044,
   0.967672,
   0.971183,
   0.992732,
   0.989003,
   0.989389,
   0.995773,
   1.002323,
   1.007248,
   1.016662,
   1.020981,
   1.026692,
   1.029770,
   1.025047,
   1.003830,
   0.979989,
   0.961536,
   0.981114,
   1.005476,
   1.021905,
   1.028929,
   1.007069,
   0.931832,
   0.854199,
   0.878109,
   0.963223,
   1.004691,
   0.996288,
   0.995741,
   1.002515,
   0.986844,
   0.974037,
   0.989666,
   0.997872,
   0.986442,
   0.970561,
   0.978370,
   0.993523,
   0.996702,
   0.995132,
   0.977621,
   0.965405,
   0.952432,
   0.962346,
   0.979314,
   0.983726,
   0.964633,
   0.951956,
   0.950172,
   0.944444,
   0.946661,
   0.965475,
   0.973536,
   0.972609,
   0.970563,
   0.966926,
   0.967250,
   0.974310,
   0.970387,
   0.973056,
   0.965426,
   0.948252,
   0.951625,
   0.960597,
   0.954735,
   0.934367,
   0.940530,
   0.949678,
   0.942924,
   0.934660,
   0.937842,
   0.933987,
   0.896470,
   0.875778,
   0.887238,
   0.900884,
   0.903535,
   0.886759,
   0.886927,
   0.896889,
   0.913417,
   0.929779,
   0.925566,
   0.915371,
   0.927271,
   0.937016,
   0.941041,
   0.936580,
   0.921575,
   0.920498,
   0.919548,
   0.899597,
   0.884532,
   0.872579,
   0.859395,
   0.875082,
   0.885477,
   0.901240,
   0.907612,
   0.910641,
   0.887243,
   0.852529,
   0.875291,
   0.901993,
   0.894307,
   0.873726,
   0.885200,
   0.886886,
   0.872473,
   0.873738,
   0.898376,
   0.901162,
   0.889762,
   0.888230,
   0.886975,
   0.896657,
   0.898606,
   0.890550,
   0.882086,
   0.878723,
   0.887200,
   0.892756,
   0.895105,
   0.890229,
   0.884823,
   0.886366,
   0.880187,
   0.870019,
   0.866221,
   0.870225,
   0.879418,
   0.866167,
   0.868502,
   0.875639,
   0.881373,
   0.867158,
   0.849650,
   0.848861,
   0.863753,
   0.874303,
   0.878646,
   0.872624,
   0.860816,
   0.821565,
   0.796843,
   0.847264,
   0.883394,
   0.882098,
   0.862897,
   0.871210,
   0.877958,
   0.876801,
   0.875161,
   0.870451,
   0.856402,
   0.838225,
   0.780252,
   0.684670,
   0.727330,
   0.814953,
   0.849844,
   0.860801,
   0.853648,
   0.841488,
   0.845385,
   0.857069,
   0.850039,
   0.850286,
   0.862256,
   0.874509,
   0.870411,
   0.857631,
   0.850185,
   0.847339,
   0.847025,
   0.854198,
   0.851586,
   0.842275,
   0.843097,
   0.847200,
   0.835344,
   0.833944,
   0.849836,
   0.856831,
   0.848203,
   0.844987,
   0.846947,
   0.844643,
   0.831116,
   0.832835,
   0.839511,
   0.840841,
   0.839196,
   0.833500,
   0.824912,
   0.823825,
   0.831834,
   0.836620,
   0.832032,
   0.828423,
   0.832750,
   0.835358,
   0.831862,
   0.829876,
   0.825710,
   0.830984,
   0.832493,
   0.831839,
   0.831912,
   0.827913,
   0.822355,
   0.817132,
   0.813016,
   0.807610,
   0.807985,
   0.807777,
   0.807388,
   0.806756,
   0.806513,
   0.806233,
   0.805666,
   0.805079,
   0.804655,
   0.804210,
   0.803460,
   0.802628,
   0.801785,
   0.800994,
   0.800519,
   0.800250,
   0.799326,
   0.798389,
   0.797656,
   0.797267,
   0.796795,
   0.795930,
   0.795203,
   0.795052,
   0.795408,
   0.794424,
   0.787653,
   0.784574,
   0.794043,
   0.789086,
   0.777796,
   0.762222,
   0.765960,
   0.779755,
   0.772375,
   0.768345,
   0.768868,
   0.778468,
   0.776744,
   0.780499,
   0.786101,
   0.782483,
   0.778341,
   0.774599,
   0.766093,
   0.771367,
   0.779203,
   0.775949,
   0.769154,
   0.767470,
   0.772129,
   0.777978,
   0.774108,
   0.760600,
   0.757372,
   0.758951,
   0.766429,
   0.771416,
   0.777816,
   0.781175,
   0.765693,
   0.766017,
   0.775747,
   0.769139,
   0.752237,
   0.745158,
   0.731339,
   0.717032,
   0.693868,
   0.691997,
   0.703386,
   0.709222,
   0.715189,
   0.740945,
   0.749914,
   0.742627,
   0.744209,
   0.747450,
   0.734615,
   0.728352,
   0.729736,
   0.729770,
   0.731476,
   0.735078,
   0.731515,
   0.734560,
   0.718095,
   0.713721,
   0.707643,
   0.690916,
   0.710834,
   0.717360,
   0.701713,
   0.697423,
   0.709803,
   0.714634,
   0.717192,
   0.722423,
   0.729683,
   0.735776,
   0.723019,
   0.712808,
   0.708779,
   0.718271,
   0.718376,
   0.715575,
   0.718041,
   0.715134,
   0.694548,
   0.686654,
   0.698693,
   0.703273,
   0.695003,
   0.680729,
   0.674497,
   0.674294,
   0.686167,
   0.698334,
   0.698962,
   0.688365,
   0.677860,
   0.682293,
   0.690862,
   0.685291,
   0.687761,
   0.689924,
   0.684560,
   0.679792,
   0.681090,
   0.677797,
   0.676251,
   0.681694,
   0.671447,
   0.658527,
   0.666548,
   0.673403,
   0.668200,
   0.664613,
   0.671520,
   0.677121,
   0.675022,
   0.672129,
   0.670593,
   0.669500,
   0.668333,
   0.667737,
   0.665916,
   0.664346,
   0.662971,
   0.661623,
   0.660349,
   0.659145,
   0.657852,
   0.656644,
   0.655877,
   0.655387,
   0.654899,
   0.654211,
   0.653217,
   0.652105,
   0.651086,
   0.650157,
   0.649249,
   0.648234,
   0.647041,
   0.645838,
   0.644720,
   0.643716,
   0.642863,
   0.642104,
   0.641084,
   0.639905,
   0.638680,
   0.637871,
   0.637514,
   0.636607,
   0.634857,
   0.635143,
   0.640336,
   0.636207,
   0.623192,
   0.623051,
   0.635293,
   0.637330,
   0.624716,
   0.596879,
   0.587917,
   0.602908,
   0.617500,
   0.626561,
   0.625854,
   0.619775,
   0.624291,
   0.624819,
   0.629270,
   0.630080,
   0.624918,
   0.613753,
   0.612155,
   0.617028,
   0.618852,
   0.618880,
   0.620414,
   0.622181,
   0.621219,
   0.619344,
   0.610605,
   0.604968,
   0.612727,
   0.615943,
   0.610690,
   0.608837,
   0.608755,
   0.606753,
   0.602233,
   0.599155,
   0.595068,
   0.587461,
   0.586862,
   0.589864,
   0.585506,
   0.592023,
   0.599757,
   0.602611,
   0.603347,
   0.601718,
   0.601253,
   0.601228,
   0.600388,
   0.597663,
   0.587480,
   0.583392,
   0.588426,
   0.591482,
   0.591236,
   0.587254,
   0.580006,
   0.580437,
   0.586091,
   0.583643,
   0.573822,
   0.574305,
   0.581073,
   0.585161,
   0.585229,
   0.582363,
   0.581946,
   0.578667,
   0.572515,
   0.571071,
   0.572032,
   0.581459,
   0.583833,
   0.581715,
   0.582018,
   0.580844,
   0.580928,
   0.577723,
   0.573821,
   0.572338,
   0.565899,
   0.565507,
   0.563830,
   0.557675,
   0.552911,
   0.554826,
   0.555025,
   0.545887,
   0.541366,
   0.534556,
   0.518736,
   0.524672,
   0.552115,
   0.566640,
   0.556147,
   0.538985,
   0.524376,
   0.521510,
   0.546061,
   0.559478,
   0.551985,
   0.541415,
   0.544465,
   0.557034,
   0.564103,
   0.567073,
   0.557233,
   0.551811,
   0.548344,
   0.548531,
   0.551740,
   0.554806,
   0.551830,
   0.551748,
   0.550962,
   0.549432,
   0.543002,
   0.533497,
   0.522286,
   0.521141,
   0.535498,
   0.550805,
   0.548943,
   0.544787,
   0.555225,
   0.565037,
   0.553998,
   0.538985,
   0.534709,
   0.538473,
   0.545797,
   0.550597,
   0.553157,
   0.549395,
   0.538777,
   0.536113,
   0.545213,
   0.549589,
   0.529789,
   0.513188,
   0.511489,
   0.526945,
   0.547464,
   0.548999,
   0.525627,
   0.513081,
   0.531038,
   0.550608,
   0.557217,
   0.532572,
   0.457145,
   0.431179,
   0.478562,
   0.507136,
   0.516800,
   0.525597,
   0.523559,
   0.504366,
   0.448537,
   0.369231,
   0.364745,
   0.415112,
   0.461940,
   0.506054,
   0.523285,
   0.522726,
   0.521031,
   0.519992,
   0.520355,
   0.513229,
   0.490323,
   0.485802,
   0.500186,
   0.510245,
   0.516220,
   0.518688,
   0.520122,
   0.523674,
   0.529299,
   0.531765,
   0.521795,
   0.509469,
   0.474751,
   0.403221,
   0.390615,
   0.418187,
   0.458732,
   0.493049,
   0.490831,
   0.485400,
   0.506820,
   0.499459,
   0.514810,
   0.510309,
   0.515371,
   0.520335,
   0.515191,
   0.509282,
   0.506803,
   0.498574,
   0.484234,
   0.472299,
   0.484625,
   0.498603,
   0.500796,
   0.500349,
   0.501628,
   0.507132,
   0.501504,
   0.495058,
   0.497385,
   0.497225,
   0.481666,
   0.492912,
   0.500363,
   0.493714,
   0.494244,
   0.496832,
   0.490750,
   0.489182,
   0.492814,
   0.492092,
   0.482002,
   0.461478,
   0.461528,
   0.480559,
   0.486845,
   0.488590,
   0.492771,
   0.490583,
   0.490950,
   0.494123,
   0.490500,
   0.482386,
   0.486043,
   0.486156,
   0.469508,
   0.477495,
   0.489578,
   0.487441,
   0.479181,
   0.478585,
   0.489606,
   0.484245,
   0.475770,
   0.475498,
   0.469378,
   0.466377,
   0.461039,
   0.449355,
   0.467092,
   0.448683,
   0.452318,
   0.433411,
   0.426896,
   0.444642,
   0.456586,
   0.475711,
   0.487471,
   0.490190,
   0.493573,
   0.483440,
   0.482101,
   0.458586,
   0.454925,
   0.459084,
   0.450068,
   0.445579,
   0.442777,
   0.433253,
   0.443912,
   0.451464,
   0.456898,
   0.455859,
   0.454393,
   0.460740,
   0.464606,
   0.453377,
   0.452578,
   0.463036,
   0.458660,
   0.443361,
   0.441172,
   0.449918,
   0.451365,
   0.441597,
   0.436156,
   0.451132,
   0.453848,
   0.456105,
   0.451905,
   0.455643,
   0.445302,
   0.436658,
   0.430779,
   0.434537,
   0.428548,
   0.423599,
   0.428977,
   0.434262,
   0.434415,
   0.438015,
   0.436680,
   0.440667,
   0.450817,
   0.455123,
   0.453417,
   0.453365,
   0.454817,
   0.454444,
   0.450312,
   0.447743,
   0.446145,
   0.440237,
   0.428994,
   0.428404,
   0.426001,
   0.428682,
   0.422350,
   0.409828,
   0.412462,
   0.427939,
   0.415231,
   0.428539,
   0.429105,
   0.423862,
   0.432470,
   0.429332,
   0.452915,
   0.466473,
   0.466071,
   0.457723,
   0.446547,
   0.443433,
   0.438183,
   0.441664,
   0.427688,
   0.422407,
   0.423162,
   0.408485,
   0.424956,
   0.433915,
   0.422433,
   0.424032,
   0.432627,
   0.435854,
   0.435866,
   0.423598,
   0.439897,
   0.433318,
   0.415269,
   0.414802,
   0.432961,
   0.440552,
   0.420305,
   0.408180,
   0.413359,
   0.419702,
   0.418559,
   0.405971,
   0.398695,
   0.403652,
   0.403324,
   0.411033,
   0.406927,
   0.417761,
   0.421600,
   0.412612,
   0.413568,
   0.406846,
   0.414464,
   0.414779,
   0.418291,
   0.422296,
   0.418731,
   0.411253,
   0.409191,
   0.417497,
   0.408774,
   0.408957,
   0.408851,
   0.410726,
   0.410672,
   0.400590,
   0.407849,
   0.411289,
   0.413537,
   0.411178,
   0.413281,
   0.413805,
   0.411560,
   0.409055,
   0.413797,
   0.410371,
   0.411675,
   0.411436,
   0.405805,
   0.405010,
   0.402197,
   0.400389,
   0.401844,
   0.396767,
   0.397328,
   0.398315,
   0.396541,
   0.398046,
   0.404271,
   0.400096,
   0.398435,
   0.400858,
   0.396966,
   0.394909,
   0.404699,
   0.401482,
   0.394408,
   0.393449,
   0.397276,
   0.397097,
   0.395317,
   0.396240,
   0.397369,
   0.399283,
   0.397169,
   0.395215,
   0.394603,
   0.392664,
   0.396450,
   0.386549,
   0.385606,
   0.389287,
   0.391635,
   0.390603,
   0.390178,
   0.391739,
   0.391781,
   0.391057,
   0.387217,
   0.384988,
   0.387000,
   0.387747,
   0.386570,
   0.386120,
   0.385591,
   0.383395,
   0.386132,
   0.384359,
   0.387659,
   0.387365,
   0.384503,
   0.385479,
   0.382822,
   0.381126,
   0.379251,
   0.376113,
   0.381016,
   0.376903,
   0.379178,
   0.369255,
   0.370242,
   0.373758,
   0.357331,
   0.361905,
   0.363270,
   0.366339,
   0.366459,
   0.366503,
   0.372848,
   0.372701,
   0.371310,
   0.374891,
   0.375332,
   0.370509,
   0.374332,
   0.374582,
   0.371227,
   0.374687,
   0.378320,
   0.368095,
   0.371835,
   0.371744,
   0.371051,
   0.370370,
   0.369730,
   0.369132,
   0.368573,
   0.368048,
   0.367553,
   0.367083,
   0.366633,
   0.366200,
   0.365779,
   0.365365,
   0.364955,
   0.364548,
   0.364144,
   0.363741,
   0.363341,
   0.362942,
   0.362545,
   0.362150,
   0.361755,
   0.361361,
   0.360968,
   0.360575,
   0.360181,
   0.359786,
   0.359389,
   0.358990,
   0.358588,
   0.358182,
   0.357772,
   0.357357,
   0.356938,
   0.356516,
   0.356094,
   0.355674,
   0.355259,
   0.354852,
   0.354456,
   0.354072,
   0.353704,
   0.353353,
   0.353023,
   0.352709,
   0.352409,
   0.352117,
   0.351831,
   0.351547,
   0.351261,
   0.350968,
   0.350666,
   0.350350,
   0.350018,
   0.349669,
   0.349303,
   0.348922,
   0.348526,
   0.348116,
   0.347692,
   0.347256,
   0.346807,
   0.346346,
   0.345875,
   0.345393,
   0.344904,
   0.344407,
   0.343903,
   0.343396,
   0.342884,
   0.342370,
   0.341856,
   0.341341,
   0.340828,
   0.340316,
   0.339806,
   0.339298,
   0.338790,
   0.338284,
   0.337780,
   0.337277,
   0.336776,
   0.336276,
   0.335778,
   0.335281,
   0.334785,
   0.334291,
   0.333798,
   0.333307,
   0.332817,
   0.332328,
   0.331842,
   0.331356,
   0.330872,
   0.330389,
   0.329908,
   0.329428
};

#endif
