#ifndef _G0IV_H_
#define _G0IV_H_

/* spectrum for g0iv star           */
/* number of elements = 1895       */

static double _g0iv_lambda[] = {
   1150.000000,
   1155.000000,
   1160.000000,
   1165.000000,
   1170.000000,
   1175.000000,
   1180.000000,
   1185.000000,
   1190.000000,
   1195.000000,
   1200.000000,
   1205.000000,
   1210.000000,
   1215.000000,
   1220.000000,
   1225.000000,
   1230.000000,
   1235.000000,
   1240.000000,
   1245.000000,
   1250.000000,
   1255.000000,
   1260.000000,
   1265.000000,
   1270.000000,
   1275.000000,
   1280.000000,
   1285.000000,
   1290.000000,
   1295.000000,
   1300.000000,
   1305.000000,
   1310.000000,
   1315.000000,
   1320.000000,
   1325.000000,
   1330.000000,
   1335.000000,
   1340.000000,
   1345.000000,
   1350.000000,
   1355.000000,
   1360.000000,
   1365.000000,
   1370.000000,
   1375.000000,
   1380.000000,
   1385.000000,
   1390.000000,
   1395.000000,
   1400.000000,
   1405.000000,
   1410.000000,
   1415.000000,
   1420.000000,
   1425.000000,
   1430.000000,
   1435.000000,
   1440.000000,
   1445.000000,
   1450.000000,
   1455.000000,
   1460.000000,
   1465.000000,
   1470.000000,
   1475.000000,
   1480.000000,
   1485.000000,
   1490.000000,
   1495.000000,
   1500.000000,
   1505.000000,
   1510.000000,
   1515.000000,
   1520.000000,
   1525.000000,
   1530.000000,
   1535.000000,
   1540.000000,
   1545.000000,
   1550.000000,
   1555.000000,
   1560.000000,
   1565.000000,
   1570.000000,
   1575.000000,
   1580.000000,
   1585.000000,
   1590.000000,
   1595.000000,
   1600.000000,
   1605.000000,
   1610.000000,
   1615.000000,
   1620.000000,
   1625.000000,
   1630.000000,
   1635.000000,
   1640.000000,
   1645.000000,
   1650.000000,
   1655.000000,
   1660.000000,
   1665.000000,
   1670.000000,
   1675.000000,
   1680.000000,
   1685.000000,
   1690.000000,
   1695.000000,
   1700.000000,
   1705.000000,
   1710.000000,
   1715.000000,
   1720.000000,
   1725.000000,
   1730.000000,
   1735.000000,
   1740.000000,
   1745.000000,
   1750.000000,
   1755.000000,
   1760.000000,
   1765.000000,
   1770.000000,
   1775.000000,
   1780.000000,
   1785.000000,
   1790.000000,
   1795.000000,
   1800.000000,
   1805.000000,
   1810.000000,
   1815.000000,
   1820.000000,
   1825.000000,
   1830.000000,
   1835.000000,
   1840.000000,
   1845.000000,
   1850.000000,
   1855.000000,
   1860.000000,
   1865.000000,
   1870.000000,
   1875.000000,
   1880.000000,
   1885.000000,
   1890.000000,
   1895.000000,
   1900.000000,
   1905.000000,
   1910.000000,
   1915.000000,
   1920.000000,
   1925.000000,
   1930.000000,
   1935.000000,
   1940.000000,
   1945.000000,
   1950.000000,
   1955.000000,
   1960.000000,
   1965.000000,
   1970.000000,
   1975.000000,
   1980.000000,
   1985.000000,
   1990.000000,
   1995.000000,
   2000.000000,
   2005.000000,
   2010.000000,
   2015.000000,
   2020.000000,
   2025.000000,
   2030.000000,
   2035.000000,
   2040.000000,
   2045.000000,
   2050.000000,
   2055.000000,
   2060.000000,
   2065.000000,
   2070.000000,
   2075.000000,
   2080.000000,
   2085.000000,
   2090.000000,
   2095.000000,
   2100.000000,
   2105.000000,
   2110.000000,
   2115.000000,
   2120.000000,
   2125.000000,
   2130.000000,
   2135.000000,
   2140.000000,
   2145.000000,
   2150.000000,
   2155.000000,
   2160.000000,
   2165.000000,
   2170.000000,
   2175.000000,
   2180.000000,
   2185.000000,
   2190.000000,
   2195.000000,
   2200.000000,
   2205.000000,
   2210.000000,
   2215.000000,
   2220.000000,
   2225.000000,
   2230.000000,
   2235.000000,
   2240.000000,
   2245.000000,
   2250.000000,
   2255.000000,
   2260.000000,
   2265.000000,
   2270.000000,
   2275.000000,
   2280.000000,
   2285.000000,
   2290.000000,
   2295.000000,
   2300.000000,
   2305.000000,
   2310.000000,
   2315.000000,
   2320.000000,
   2325.000000,
   2330.000000,
   2335.000000,
   2340.000000,
   2345.000000,
   2350.000000,
   2355.000000,
   2360.000000,
   2365.000000,
   2370.000000,
   2375.000000,
   2380.000000,
   2385.000000,
   2390.000000,
   2395.000000,
   2400.000000,
   2405.000000,
   2410.000000,
   2415.000000,
   2420.000000,
   2425.000000,
   2430.000000,
   2435.000000,
   2440.000000,
   2445.000000,
   2450.000000,
   2455.000000,
   2460.000000,
   2465.000000,
   2470.000000,
   2475.000000,
   2480.000000,
   2485.000000,
   2490.000000,
   2495.000000,
   2500.000000,
   2505.000000,
   2510.000000,
   2515.000000,
   2520.000000,
   2525.000000,
   2530.000000,
   2535.000000,
   2540.000000,
   2545.000000,
   2550.000000,
   2555.000000,
   2560.000000,
   2565.000000,
   2570.000000,
   2575.000000,
   2580.000000,
   2585.000000,
   2590.000000,
   2595.000000,
   2600.000000,
   2605.000000,
   2610.000000,
   2615.000000,
   2620.000000,
   2625.000000,
   2630.000000,
   2635.000000,
   2640.000000,
   2645.000000,
   2650.000000,
   2655.000000,
   2660.000000,
   2665.000000,
   2670.000000,
   2675.000000,
   2680.000000,
   2685.000000,
   2690.000000,
   2695.000000,
   2700.000000,
   2705.000000,
   2710.000000,
   2715.000000,
   2720.000000,
   2725.000000,
   2730.000000,
   2735.000000,
   2740.000000,
   2745.000000,
   2750.000000,
   2755.000000,
   2760.000000,
   2765.000000,
   2770.000000,
   2775.000000,
   2780.000000,
   2785.000000,
   2790.000000,
   2795.000000,
   2800.000000,
   2805.000000,
   2810.000000,
   2815.000000,
   2820.000000,
   2825.000000,
   2830.000000,
   2835.000000,
   2840.000000,
   2845.000000,
   2850.000000,
   2855.000000,
   2860.000000,
   2865.000000,
   2870.000000,
   2875.000000,
   2880.000000,
   2885.000000,
   2890.000000,
   2895.000000,
   2900.000000,
   2905.000000,
   2910.000000,
   2915.000000,
   2920.000000,
   2925.000000,
   2930.000000,
   2935.000000,
   2940.000000,
   2945.000000,
   2950.000000,
   2955.000000,
   2960.000000,
   2965.000000,
   2970.000000,
   2975.000000,
   2980.000000,
   2985.000000,
   2990.000000,
   2995.000000,
   3000.000000,
   3005.000000,
   3010.000000,
   3015.000000,
   3020.000000,
   3025.000000,
   3030.000000,
   3035.000000,
   3040.000000,
   3045.000000,
   3050.000000,
   3055.000000,
   3060.000000,
   3065.000000,
   3070.000000,
   3075.000000,
   3080.000000,
   3085.000000,
   3090.000000,
   3095.000000,
   3100.000000,
   3105.000000,
   3110.000000,
   3115.000000,
   3120.000000,
   3125.000000,
   3130.000000,
   3135.000000,
   3140.000000,
   3145.000000,
   3150.000000,
   3155.000000,
   3160.000000,
   3165.000000,
   3170.000000,
   3175.000000,
   3180.000000,
   3185.000000,
   3190.000000,
   3195.000000,
   3200.000000,
   3205.000000,
   3210.000000,
   3215.000000,
   3220.000000,
   3225.000000,
   3230.000000,
   3235.000000,
   3240.000000,
   3245.000000,
   3250.000000,
   3255.000000,
   3260.000000,
   3265.000000,
   3270.000000,
   3275.000000,
   3280.000000,
   3285.000000,
   3290.000000,
   3295.000000,
   3300.000000,
   3305.000000,
   3310.000000,
   3315.000000,
   3320.000000,
   3325.000000,
   3330.000000,
   3335.000000,
   3340.000000,
   3345.000000,
   3350.000000,
   3355.000000,
   3360.000000,
   3365.000000,
   3370.000000,
   3375.000000,
   3380.000000,
   3385.000000,
   3390.000000,
   3395.000000,
   3400.000000,
   3405.000000,
   3410.000000,
   3415.000000,
   3420.000000,
   3425.000000,
   3430.000000,
   3435.000000,
   3440.000000,
   3445.000000,
   3450.000000,
   3455.000000,
   3460.000000,
   3465.000000,
   3470.000000,
   3475.000000,
   3480.000000,
   3485.000000,
   3490.000000,
   3495.000000,
   3500.000000,
   3505.000000,
   3510.000000,
   3515.000000,
   3520.000000,
   3525.000000,
   3530.000000,
   3535.000000,
   3540.000000,
   3545.000000,
   3550.000000,
   3555.000000,
   3560.000000,
   3565.000000,
   3570.000000,
   3575.000000,
   3580.000000,
   3585.000000,
   3590.000000,
   3595.000000,
   3600.000000,
   3605.000000,
   3610.000000,
   3615.000000,
   3620.000000,
   3625.000000,
   3630.000000,
   3635.000000,
   3640.000000,
   3645.000000,
   3650.000000,
   3655.000000,
   3660.000000,
   3665.000000,
   3670.000000,
   3675.000000,
   3680.000000,
   3685.000000,
   3690.000000,
   3695.000000,
   3700.000000,
   3705.000000,
   3710.000000,
   3715.000000,
   3720.000000,
   3725.000000,
   3730.000000,
   3735.000000,
   3740.000000,
   3745.000000,
   3750.000000,
   3755.000000,
   3760.000000,
   3765.000000,
   3770.000000,
   3775.000000,
   3780.000000,
   3785.000000,
   3790.000000,
   3795.000000,
   3800.000000,
   3805.000000,
   3810.000000,
   3815.000000,
   3820.000000,
   3825.000000,
   3830.000000,
   3835.000000,
   3840.000000,
   3845.000000,
   3850.000000,
   3855.000000,
   3860.000000,
   3865.000000,
   3870.000000,
   3875.000000,
   3880.000000,
   3885.000000,
   3890.000000,
   3895.000000,
   3900.000000,
   3905.000000,
   3910.000000,
   3915.000000,
   3920.000000,
   3925.000000,
   3930.000000,
   3935.000000,
   3940.000000,
   3945.000000,
   3950.000000,
   3955.000000,
   3960.000000,
   3965.000000,
   3970.000000,
   3975.000000,
   3980.000000,
   3985.000000,
   3990.000000,
   3995.000000,
   4000.000000,
   4005.000000,
   4010.000000,
   4015.000000,
   4020.000000,
   4025.000000,
   4030.000000,
   4035.000000,
   4040.000000,
   4045.000000,
   4050.000000,
   4055.000000,
   4060.000000,
   4065.000000,
   4070.000000,
   4075.000000,
   4080.000000,
   4085.000000,
   4090.000000,
   4095.000000,
   4100.000000,
   4105.000000,
   4110.000000,
   4115.000000,
   4120.000000,
   4125.000000,
   4130.000000,
   4135.000000,
   4140.000000,
   4145.000000,
   4150.000000,
   4155.000000,
   4160.000000,
   4165.000000,
   4170.000000,
   4175.000000,
   4180.000000,
   4185.000000,
   4190.000000,
   4195.000000,
   4200.000000,
   4205.000000,
   4210.000000,
   4215.000000,
   4220.000000,
   4225.000000,
   4230.000000,
   4235.000000,
   4240.000000,
   4245.000000,
   4250.000000,
   4255.000000,
   4260.000000,
   4265.000000,
   4270.000000,
   4275.000000,
   4280.000000,
   4285.000000,
   4290.000000,
   4295.000000,
   4300.000000,
   4305.000000,
   4310.000000,
   4315.000000,
   4320.000000,
   4325.000000,
   4330.000000,
   4335.000000,
   4340.000000,
   4345.000000,
   4350.000000,
   4355.000000,
   4360.000000,
   4365.000000,
   4370.000000,
   4375.000000,
   4380.000000,
   4385.000000,
   4390.000000,
   4395.000000,
   4400.000000,
   4405.000000,
   4410.000000,
   4415.000000,
   4420.000000,
   4425.000000,
   4430.000000,
   4435.000000,
   4440.000000,
   4445.000000,
   4450.000000,
   4455.000000,
   4460.000000,
   4465.000000,
   4470.000000,
   4475.000000,
   4480.000000,
   4485.000000,
   4490.000000,
   4495.000000,
   4500.000000,
   4505.000000,
   4510.000000,
   4515.000000,
   4520.000000,
   4525.000000,
   4530.000000,
   4535.000000,
   4540.000000,
   4545.000000,
   4550.000000,
   4555.000000,
   4560.000000,
   4565.000000,
   4570.000000,
   4575.000000,
   4580.000000,
   4585.000000,
   4590.000000,
   4595.000000,
   4600.000000,
   4605.000000,
   4610.000000,
   4615.000000,
   4620.000000,
   4625.000000,
   4630.000000,
   4635.000000,
   4640.000000,
   4645.000000,
   4650.000000,
   4655.000000,
   4660.000000,
   4665.000000,
   4670.000000,
   4675.000000,
   4680.000000,
   4685.000000,
   4690.000000,
   4695.000000,
   4700.000000,
   4705.000000,
   4710.000000,
   4715.000000,
   4720.000000,
   4725.000000,
   4730.000000,
   4735.000000,
   4740.000000,
   4745.000000,
   4750.000000,
   4755.000000,
   4760.000000,
   4765.000000,
   4770.000000,
   4775.000000,
   4780.000000,
   4785.000000,
   4790.000000,
   4795.000000,
   4800.000000,
   4805.000000,
   4810.000000,
   4815.000000,
   4820.000000,
   4825.000000,
   4830.000000,
   4835.000000,
   4840.000000,
   4845.000000,
   4850.000000,
   4855.000000,
   4860.000000,
   4865.000000,
   4870.000000,
   4875.000000,
   4880.000000,
   4885.000000,
   4890.000000,
   4895.000000,
   4900.000000,
   4905.000000,
   4910.000000,
   4915.000000,
   4920.000000,
   4925.000000,
   4930.000000,
   4935.000000,
   4940.000000,
   4945.000000,
   4950.000000,
   4955.000000,
   4960.000000,
   4965.000000,
   4970.000000,
   4975.000000,
   4980.000000,
   4985.000000,
   4990.000000,
   4995.000000,
   5000.000000,
   5005.000000,
   5010.000000,
   5015.000000,
   5020.000000,
   5025.000000,
   5030.000000,
   5035.000000,
   5040.000000,
   5045.000000,
   5050.000000,
   5055.000000,
   5060.000000,
   5065.000000,
   5070.000000,
   5075.000000,
   5080.000000,
   5085.000000,
   5090.000000,
   5095.000000,
   5100.000000,
   5105.000000,
   5110.000000,
   5115.000000,
   5120.000000,
   5125.000000,
   5130.000000,
   5135.000000,
   5140.000000,
   5145.000000,
   5150.000000,
   5155.000000,
   5160.000000,
   5165.000000,
   5170.000000,
   5175.000000,
   5180.000000,
   5185.000000,
   5190.000000,
   5195.000000,
   5200.000000,
   5205.000000,
   5210.000000,
   5215.000000,
   5220.000000,
   5225.000000,
   5230.000000,
   5235.000000,
   5240.000000,
   5245.000000,
   5250.000000,
   5255.000000,
   5260.000000,
   5265.000000,
   5270.000000,
   5275.000000,
   5280.000000,
   5285.000000,
   5290.000000,
   5295.000000,
   5300.000000,
   5305.000000,
   5310.000000,
   5315.000000,
   5320.000000,
   5325.000000,
   5330.000000,
   5335.000000,
   5340.000000,
   5345.000000,
   5350.000000,
   5355.000000,
   5360.000000,
   5365.000000,
   5370.000000,
   5375.000000,
   5380.000000,
   5385.000000,
   5390.000000,
   5395.000000,
   5400.000000,
   5405.000000,
   5410.000000,
   5415.000000,
   5420.000000,
   5425.000000,
   5430.000000,
   5435.000000,
   5440.000000,
   5445.000000,
   5450.000000,
   5455.000000,
   5460.000000,
   5465.000000,
   5470.000000,
   5475.000000,
   5480.000000,
   5485.000000,
   5490.000000,
   5495.000000,
   5500.000000,
   5505.000000,
   5510.000000,
   5515.000000,
   5520.000000,
   5525.000000,
   5530.000000,
   5535.000000,
   5540.000000,
   5545.000000,
   5550.000000,
   5555.000000,
   5560.000000,
   5565.000000,
   5570.000000,
   5575.000000,
   5580.000000,
   5585.000000,
   5590.000000,
   5595.000000,
   5600.000000,
   5605.000000,
   5610.000000,
   5615.000000,
   5620.000000,
   5625.000000,
   5630.000000,
   5635.000000,
   5640.000000,
   5645.000000,
   5650.000000,
   5655.000000,
   5660.000000,
   5665.000000,
   5670.000000,
   5675.000000,
   5680.000000,
   5685.000000,
   5690.000000,
   5695.000000,
   5700.000000,
   5705.000000,
   5710.000000,
   5715.000000,
   5720.000000,
   5725.000000,
   5730.000000,
   5735.000000,
   5740.000000,
   5745.000000,
   5750.000000,
   5755.000000,
   5760.000000,
   5765.000000,
   5770.000000,
   5775.000000,
   5780.000000,
   5785.000000,
   5790.000000,
   5795.000000,
   5800.000000,
   5805.000000,
   5810.000000,
   5815.000000,
   5820.000000,
   5825.000000,
   5830.000000,
   5835.000000,
   5840.000000,
   5845.000000,
   5850.000000,
   5855.000000,
   5860.000000,
   5865.000000,
   5870.000000,
   5875.000000,
   5880.000000,
   5885.000000,
   5890.000000,
   5895.000000,
   5900.000000,
   5905.000000,
   5910.000000,
   5915.000000,
   5920.000000,
   5925.000000,
   5930.000000,
   5935.000000,
   5940.000000,
   5945.000000,
   5950.000000,
   5955.000000,
   5960.000000,
   5965.000000,
   5970.000000,
   5975.000000,
   5980.000000,
   5985.000000,
   5990.000000,
   5995.000000,
   6000.000000,
   6005.000000,
   6010.000000,
   6015.000000,
   6020.000000,
   6025.000000,
   6030.000000,
   6035.000000,
   6040.000000,
   6045.000000,
   6050.000000,
   6055.000000,
   6060.000000,
   6065.000000,
   6070.000000,
   6075.000000,
   6080.000000,
   6085.000000,
   6090.000000,
   6095.000000,
   6100.000000,
   6105.000000,
   6110.000000,
   6115.000000,
   6120.000000,
   6125.000000,
   6130.000000,
   6135.000000,
   6140.000000,
   6145.000000,
   6150.000000,
   6155.000000,
   6160.000000,
   6165.000000,
   6170.000000,
   6175.000000,
   6180.000000,
   6185.000000,
   6190.000000,
   6195.000000,
   6200.000000,
   6205.000000,
   6210.000000,
   6215.000000,
   6220.000000,
   6225.000000,
   6230.000000,
   6235.000000,
   6240.000000,
   6245.000000,
   6250.000000,
   6255.000000,
   6260.000000,
   6265.000000,
   6270.000000,
   6275.000000,
   6280.000000,
   6285.000000,
   6290.000000,
   6295.000000,
   6300.000000,
   6305.000000,
   6310.000000,
   6315.000000,
   6320.000000,
   6325.000000,
   6330.000000,
   6335.000000,
   6340.000000,
   6345.000000,
   6350.000000,
   6355.000000,
   6360.000000,
   6365.000000,
   6370.000000,
   6375.000000,
   6380.000000,
   6385.000000,
   6390.000000,
   6395.000000,
   6400.000000,
   6405.000000,
   6410.000000,
   6415.000000,
   6420.000000,
   6425.000000,
   6430.000000,
   6435.000000,
   6440.000000,
   6445.000000,
   6450.000000,
   6455.000000,
   6460.000000,
   6465.000000,
   6470.000000,
   6475.000000,
   6480.000000,
   6485.000000,
   6490.000000,
   6495.000000,
   6500.000000,
   6505.000000,
   6510.000000,
   6515.000000,
   6520.000000,
   6525.000000,
   6530.000000,
   6535.000000,
   6540.000000,
   6545.000000,
   6550.000000,
   6555.000000,
   6560.000000,
   6565.000000,
   6570.000000,
   6575.000000,
   6580.000000,
   6585.000000,
   6590.000000,
   6595.000000,
   6600.000000,
   6605.000000,
   6610.000000,
   6615.000000,
   6620.000000,
   6625.000000,
   6630.000000,
   6635.000000,
   6640.000000,
   6645.000000,
   6650.000000,
   6655.000000,
   6660.000000,
   6665.000000,
   6670.000000,
   6675.000000,
   6680.000000,
   6685.000000,
   6690.000000,
   6695.000000,
   6700.000000,
   6705.000000,
   6710.000000,
   6715.000000,
   6720.000000,
   6725.000000,
   6730.000000,
   6735.000000,
   6740.000000,
   6745.000000,
   6750.000000,
   6755.000000,
   6760.000000,
   6765.000000,
   6770.000000,
   6775.000000,
   6780.000000,
   6785.000000,
   6790.000000,
   6795.000000,
   6800.000000,
   6805.000000,
   6810.000000,
   6815.000000,
   6820.000000,
   6825.000000,
   6830.000000,
   6835.000000,
   6840.000000,
   6845.000000,
   6850.000000,
   6855.000000,
   6860.000000,
   6865.000000,
   6870.000000,
   6875.000000,
   6880.000000,
   6885.000000,
   6890.000000,
   6895.000000,
   6900.000000,
   6905.000000,
   6910.000000,
   6915.000000,
   6920.000000,
   6925.000000,
   6930.000000,
   6935.000000,
   6940.000000,
   6945.000000,
   6950.000000,
   6955.000000,
   6960.000000,
   6965.000000,
   6970.000000,
   6975.000000,
   6980.000000,
   6985.000000,
   6990.000000,
   6995.000000,
   7000.000000,
   7005.000000,
   7010.000000,
   7015.000000,
   7020.000000,
   7025.000000,
   7030.000000,
   7035.000000,
   7040.000000,
   7045.000000,
   7050.000000,
   7055.000000,
   7060.000000,
   7065.000000,
   7070.000000,
   7075.000000,
   7080.000000,
   7085.000000,
   7090.000000,
   7095.000000,
   7100.000000,
   7105.000000,
   7110.000000,
   7115.000000,
   7120.000000,
   7125.000000,
   7130.000000,
   7135.000000,
   7140.000000,
   7145.000000,
   7150.000000,
   7155.000000,
   7160.000000,
   7165.000000,
   7170.000000,
   7175.000000,
   7180.000000,
   7185.000000,
   7190.000000,
   7195.000000,
   7200.000000,
   7205.000000,
   7210.000000,
   7215.000000,
   7220.000000,
   7225.000000,
   7230.000000,
   7235.000000,
   7240.000000,
   7245.000000,
   7250.000000,
   7255.000000,
   7260.000000,
   7265.000000,
   7270.000000,
   7275.000000,
   7280.000000,
   7285.000000,
   7290.000000,
   7295.000000,
   7300.000000,
   7305.000000,
   7310.000000,
   7315.000000,
   7320.000000,
   7325.000000,
   7330.000000,
   7335.000000,
   7340.000000,
   7345.000000,
   7350.000000,
   7355.000000,
   7360.000000,
   7365.000000,
   7370.000000,
   7375.000000,
   7380.000000,
   7385.000000,
   7390.000000,
   7395.000000,
   7400.000000,
   7405.000000,
   7410.000000,
   7415.000000,
   7420.000000,
   7425.000000,
   7430.000000,
   7435.000000,
   7440.000000,
   7445.000000,
   7450.000000,
   7455.000000,
   7460.000000,
   7465.000000,
   7470.000000,
   7475.000000,
   7480.000000,
   7485.000000,
   7490.000000,
   7495.000000,
   7500.000000,
   7505.000000,
   7510.000000,
   7515.000000,
   7520.000000,
   7525.000000,
   7530.000000,
   7535.000000,
   7540.000000,
   7545.000000,
   7550.000000,
   7555.000000,
   7560.000000,
   7565.000000,
   7570.000000,
   7575.000000,
   7580.000000,
   7585.000000,
   7590.000000,
   7595.000000,
   7600.000000,
   7605.000000,
   7610.000000,
   7615.000000,
   7620.000000,
   7625.000000,
   7630.000000,
   7635.000000,
   7640.000000,
   7645.000000,
   7650.000000,
   7655.000000,
   7660.000000,
   7665.000000,
   7670.000000,
   7675.000000,
   7680.000000,
   7685.000000,
   7690.000000,
   7695.000000,
   7700.000000,
   7705.000000,
   7710.000000,
   7715.000000,
   7720.000000,
   7725.000000,
   7730.000000,
   7735.000000,
   7740.000000,
   7745.000000,
   7750.000000,
   7755.000000,
   7760.000000,
   7765.000000,
   7770.000000,
   7775.000000,
   7780.000000,
   7785.000000,
   7790.000000,
   7795.000000,
   7800.000000,
   7805.000000,
   7810.000000,
   7815.000000,
   7820.000000,
   7825.000000,
   7830.000000,
   7835.000000,
   7840.000000,
   7845.000000,
   7850.000000,
   7855.000000,
   7860.000000,
   7865.000000,
   7870.000000,
   7875.000000,
   7880.000000,
   7885.000000,
   7890.000000,
   7895.000000,
   7900.000000,
   7905.000000,
   7910.000000,
   7915.000000,
   7920.000000,
   7925.000000,
   7930.000000,
   7935.000000,
   7940.000000,
   7945.000000,
   7950.000000,
   7955.000000,
   7960.000000,
   7965.000000,
   7970.000000,
   7975.000000,
   7980.000000,
   7985.000000,
   7990.000000,
   7995.000000,
   8000.000000,
   8005.000000,
   8010.000000,
   8015.000000,
   8020.000000,
   8025.000000,
   8030.000000,
   8035.000000,
   8040.000000,
   8045.000000,
   8050.000000,
   8055.000000,
   8060.000000,
   8065.000000,
   8070.000000,
   8075.000000,
   8080.000000,
   8085.000000,
   8090.000000,
   8095.000000,
   8100.000000,
   8105.000000,
   8110.000000,
   8115.000000,
   8120.000000,
   8125.000000,
   8130.000000,
   8135.000000,
   8140.000000,
   8145.000000,
   8150.000000,
   8155.000000,
   8160.000000,
   8165.000000,
   8170.000000,
   8175.000000,
   8180.000000,
   8185.000000,
   8190.000000,
   8195.000000,
   8200.000000,
   8205.000000,
   8210.000000,
   8215.000000,
   8220.000000,
   8225.000000,
   8230.000000,
   8235.000000,
   8240.000000,
   8245.000000,
   8250.000000,
   8255.000000,
   8260.000000,
   8265.000000,
   8270.000000,
   8275.000000,
   8280.000000,
   8285.000000,
   8290.000000,
   8295.000000,
   8300.000000,
   8305.000000,
   8310.000000,
   8315.000000,
   8320.000000,
   8325.000000,
   8330.000000,
   8335.000000,
   8340.000000,
   8345.000000,
   8350.000000,
   8355.000000,
   8360.000000,
   8365.000000,
   8370.000000,
   8375.000000,
   8380.000000,
   8385.000000,
   8390.000000,
   8395.000000,
   8400.000000,
   8405.000000,
   8410.000000,
   8415.000000,
   8420.000000,
   8425.000000,
   8430.000000,
   8435.000000,
   8440.000000,
   8445.000000,
   8450.000000,
   8455.000000,
   8460.000000,
   8465.000000,
   8470.000000,
   8475.000000,
   8480.000000,
   8485.000000,
   8490.000000,
   8495.000000,
   8500.000000,
   8505.000000,
   8510.000000,
   8515.000000,
   8520.000000,
   8525.000000,
   8530.000000,
   8535.000000,
   8540.000000,
   8545.000000,
   8550.000000,
   8555.000000,
   8560.000000,
   8565.000000,
   8570.000000,
   8575.000000,
   8580.000000,
   8585.000000,
   8590.000000,
   8595.000000,
   8600.000000,
   8605.000000,
   8610.000000,
   8615.000000,
   8620.000000,
   8625.000000,
   8630.000000,
   8635.000000,
   8640.000000,
   8645.000000,
   8650.000000,
   8655.000000,
   8660.000000,
   8665.000000,
   8670.000000,
   8675.000000,
   8680.000000,
   8685.000000,
   8690.000000,
   8695.000000,
   8700.000000,
   8705.000000,
   8710.000000,
   8715.000000,
   8720.000000,
   8725.000000,
   8730.000000,
   8735.000000,
   8740.000000,
   8745.000000,
   8750.000000,
   8755.000000,
   8760.000000,
   8765.000000,
   8770.000000,
   8775.000000,
   8780.000000,
   8785.000000,
   8790.000000,
   8795.000000,
   8800.000000,
   8805.000000,
   8810.000000,
   8815.000000,
   8820.000000,
   8825.000000,
   8830.000000,
   8835.000000,
   8840.000000,
   8845.000000,
   8850.000000,
   8855.000000,
   8860.000000,
   8865.000000,
   8870.000000,
   8875.000000,
   8880.000000,
   8885.000000,
   8890.000000,
   8895.000000,
   8900.000000,
   8905.000000,
   8910.000000,
   8915.000000,
   8920.000000,
   8925.000000,
   8930.000000,
   8935.000000,
   8940.000000,
   8945.000000,
   8950.000000,
   8955.000000,
   8960.000000,
   8965.000000,
   8970.000000,
   8975.000000,
   8980.000000,
   8985.000000,
   8990.000000,
   8995.000000,
   9000.000000,
   9005.000000,
   9010.000000,
   9015.000000,
   9020.000000,
   9025.000000,
   9030.000000,
   9035.000000,
   9040.000000,
   9045.000000,
   9050.000000,
   9055.000000,
   9060.000000,
   9065.000000,
   9070.000000,
   9075.000000,
   9080.000000,
   9085.000000,
   9090.000000,
   9095.000000,
   9100.000000,
   9105.000000,
   9110.000000,
   9115.000000,
   9120.000000,
   9125.000000,
   9130.000000,
   9135.000000,
   9140.000000,
   9145.000000,
   9150.000000,
   9155.000000,
   9160.000000,
   9165.000000,
   9170.000000,
   9175.000000,
   9180.000000,
   9185.000000,
   9190.000000,
   9195.000000,
   9200.000000,
   9205.000000,
   9210.000000,
   9215.000000,
   9220.000000,
   9225.000000,
   9230.000000,
   9235.000000,
   9240.000000,
   9245.000000,
   9250.000000,
   9255.000000,
   9260.000000,
   9265.000000,
   9270.000000,
   9275.000000,
   9280.000000,
   9285.000000,
   9290.000000,
   9295.000000,
   9300.000000,
   9305.000000,
   9310.000000,
   9315.000000,
   9320.000000,
   9325.000000,
   9330.000000,
   9335.000000,
   9340.000000,
   9345.000000,
   9350.000000,
   9355.000000,
   9360.000000,
   9365.000000,
   9370.000000,
   9375.000000,
   9380.000000,
   9385.000000,
   9390.000000,
   9395.000000,
   9400.000000,
   9405.000000,
   9410.000000,
   9415.000000,
   9420.000000,
   9425.000000,
   9430.000000,
   9435.000000,
   9440.000000,
   9445.000000,
   9450.000000,
   9455.000000,
   9460.000000,
   9465.000000,
   9470.000000,
   9475.000000,
   9480.000000,
   9485.000000,
   9490.000000,
   9495.000000,
   9500.000000,
   9505.000000,
   9510.000000,
   9515.000000,
   9520.000000,
   9525.000000,
   9530.000000,
   9535.000000,
   9540.000000,
   9545.000000,
   9550.000000,
   9555.000000,
   9560.000000,
   9565.000000,
   9570.000000,
   9575.000000,
   9580.000000,
   9585.000000,
   9590.000000,
   9595.000000,
   9600.000000,
   9605.000000,
   9610.000000,
   9615.000000,
   9620.000000,
   9625.000000,
   9630.000000,
   9635.000000,
   9640.000000,
   9645.000000,
   9650.000000,
   9655.000000,
   9660.000000,
   9665.000000,
   9670.000000,
   9675.000000,
   9680.000000,
   9685.000000,
   9690.000000,
   9695.000000,
   9700.000000,
   9705.000000,
   9710.000000,
   9715.000000,
   9720.000000,
   9725.000000,
   9730.000000,
   9735.000000,
   9740.000000,
   9745.000000,
   9750.000000,
   9755.000000,
   9760.000000,
   9765.000000,
   9770.000000,
   9775.000000,
   9780.000000,
   9785.000000,
   9790.000000,
   9795.000000,
   9800.000000,
   9805.000000,
   9810.000000,
   9815.000000,
   9820.000000,
   9825.000000,
   9830.000000,
   9835.000000,
   9840.000000,
   9845.000000,
   9850.000000,
   9855.000000,
   9860.000000,
   9865.000000,
   9870.000000,
   9875.000000,
   9880.000000,
   9885.000000,
   9890.000000,
   9895.000000,
   9900.000000,
   9905.000000,
   9910.000000,
   9915.000000,
   9920.000000,
   9925.000000,
   9930.000000,
   9935.000000,
   9940.000000,
   9945.000000,
   9950.000000,
   9955.000000,
   9960.000000,
   9965.000000,
   9970.000000,
   9975.000000,
   9980.000000,
   9985.000000,
   9990.000000,
   9995.000000,
   10000.000000,
   10005.000000,
   10010.000000,
   10015.000000,
   10020.000000,
   10025.000000,
   10030.000000,
   10035.000000,
   10040.000000,
   10045.000000,
   10050.000000,
   10055.000000,
   10060.000000,
   10065.000000,
   10070.000000,
   10075.000000,
   10080.000000,
   10085.000000,
   10090.000000,
   10095.000000,
   10100.000000,
   10105.000000,
   10110.000000,
   10115.000000,
   10120.000000,
   10125.000000,
   10130.000000,
   10135.000000,
   10140.000000,
   10145.000000,
   10150.000000,
   10155.000000,
   10160.000000,
   10165.000000,
   10170.000000,
   10175.000000,
   10180.000000,
   10185.000000,
   10190.000000,
   10195.000000,
   10200.000000,
   10205.000000,
   10210.000000,
   10215.000000,
   10220.000000,
   10225.000000,
   10230.000000,
   10235.000000,
   10240.000000,
   10245.000000,
   10250.000000,
   10255.000000,
   10260.000000,
   10265.000000,
   10270.000000,
   10275.000000,
   10280.000000,
   10285.000000,
   10290.000000,
   10295.000000,
   10300.000000,
   10305.000000,
   10310.000000,
   10315.000000,
   10320.000000,
   10325.000000,
   10330.000000,
   10335.000000,
   10340.000000,
   10345.000000,
   10350.000000,
   10355.000000,
   10360.000000,
   10365.000000,
   10370.000000,
   10375.000000,
   10380.000000,
   10385.000000,
   10390.000000,
   10395.000000,
   10400.000000,
   10405.000000,
   10410.000000,
   10415.000000,
   10420.000000,
   10425.000000,
   10430.000000,
   10435.000000,
   10440.000000,
   10445.000000,
   10450.000000,
   10455.000000,
   10460.000000,
   10465.000000,
   10470.000000,
   10475.000000,
   10480.000000,
   10485.000000,
   10490.000000,
   10495.000000,
   10500.000000,
   10505.000000,
   10510.000000,
   10515.000000,
   10520.000000,
   10525.000000,
   10530.000000,
   10535.000000,
   10540.000000,
   10545.000000,
   10550.000000,
   10555.000000,
   10560.000000,
   10565.000000,
   10570.000000,
   10575.000000,
   10580.000000,
   10585.000000,
   10590.000000,
   10595.000000,
   10600.000000,
   10605.000000,
   10610.000000,
   10615.000000,
   10620.000000
};

static double _g0iv_flux[] = {
   0.000000,
   0.000000,
   0.000000,
   0.000000,
   0.000000,
   0.000000,
   0.000000,
   0.000000,
   0.000000,
   0.000000,
   0.000000,
   0.000000,
   0.000000,
   0.000000,
   0.000000,
   0.000000,
   0.000000,
   0.000000,
   0.000000,
   0.000000,
   0.000000,
   0.000000,
   0.000000,
   0.000000,
   0.000000,
   0.000000,
   0.000000,
   0.000000,
   0.000000,
   0.000000,
   0.000000,
   0.000000,
   0.000000,
   0.000000,
   0.000000,
   0.000000,
   0.000000,
   0.000000,
   0.000000,
   0.000000,
   0.000000,
   0.000000,
   0.000000,
   0.000000,
   0.000000,
   0.000000,
   0.000000,
   0.000000,
   0.000000,
   0.000000,
   0.000000,
   0.000000,
   0.000000,
   0.000000,
   0.000000,
   0.000000,
   0.000000,
   0.000000,
   0.000000,
   0.000000,
   0.000000,
   0.000000,
   0.000000,
   0.000000,
   0.000000,
   0.000000,
   0.000000,
   0.000000,
   0.000000,
   0.000000,
   0.000000,
   0.000000,
   0.000000,
   0.000000,
   0.000000,
   0.000000,
   0.000000,
   0.000000,
   0.000000,
   0.000000,
   0.000000,
   0.000000,
   0.000000,
   0.000000,
   0.000000,
   0.000000,
   0.000000,
   0.000000,
   0.000000,
   0.000000,
   0.000000,
   0.000000,
   0.000000,
   0.000000,
   0.000000,
   0.000000,
   0.000000,
   0.000000,
   0.000000,
   0.000000,
   0.000000,
   0.000001,
   0.000001,
   0.000002,
   0.000002,
   0.000003,
   0.000003,
   0.000003,
   0.000002,
   0.000001,
   0.000000,
   0.000000,
   0.000000,
   0.000000,
   0.000000,
   0.000000,
   0.000000,
   0.000000,
   0.000000,
   0.000000,
   0.000000,
   0.000007,
   0.000016,
   0.000025,
   0.000033,
   0.000039,
   0.000041,
   0.000040,
   0.000033,
   0.000020,
   0.000000,
   0.000000,
   0.000000,
   0.000000,
   0.000000,
   0.000000,
   0.000000,
   0.000000,
   0.000000,
   0.000000,
   0.000000,
   0.000106,
   0.000241,
   0.000402,
   0.000587,
   0.000792,
   0.001015,
   0.001253,
   0.001504,
   0.001764,
   0.002031,
   0.002303,
   0.002581,
   0.002864,
   0.003153,
   0.003451,
   0.003756,
   0.004071,
   0.004396,
   0.004731,
   0.005078,
   0.005437,
   0.005808,
   0.006190,
   0.006583,
   0.006986,
   0.007399,
   0.007822,
   0.008253,
   0.008693,
   0.009140,
   0.009596,
   0.010067,
   0.010559,
   0.011081,
   0.011639,
   0.012241,
   0.012895,
   0.013606,
   0.014383,
   0.015234,
   0.016160,
   0.017150,
   0.018188,
   0.019256,
   0.020339,
   0.021420,
   0.022481,
   0.023508,
   0.024483,
   0.025389,
   0.026215,
   0.026959,
   0.027627,
   0.028221,
   0.028746,
   0.029206,
   0.029604,
   0.029944,
   0.030231,
   0.030467,
   0.030658,
   0.030810,
   0.030930,
   0.031026,
   0.031104,
   0.031171,
   0.031236,
   0.031305,
   0.031384,
   0.031483,
   0.031605,
   0.031751,
   0.031918,
   0.032105,
   0.032309,
   0.032528,
   0.032760,
   0.033003,
   0.033255,
   0.033514,
   0.033776,
   0.034032,
   0.034271,
   0.034481,
   0.034652,
   0.034773,
   0.034832,
   0.034818,
   0.034721,
   0.034529,
   0.034237,
   0.033854,
   0.033397,
   0.032882,
   0.032325,
   0.031740,
   0.031145,
   0.030555,
   0.029985,
   0.029452,
   0.028970,
   0.028556,
   0.028224,
   0.027989,
   0.027866,
   0.027870,
   0.028015,
   0.028317,
   0.028791,
   0.029452,
   0.030304,
   0.031312,
   0.032432,
   0.033618,
   0.034826,
   0.036010,
   0.037125,
   0.038126,
   0.038969,
   0.039607,
   0.040013,
   0.040219,
   0.040275,
   0.040231,
   0.040135,
   0.040038,
   0.039989,
   0.040037,
   0.040232,
   0.040623,
   0.041244,
   0.042068,
   0.043051,
   0.044151,
   0.045324,
   0.046527,
   0.047717,
   0.048851,
   0.049886,
   0.050779,
   0.051511,
   0.052169,
   0.052864,
   0.053705,
   0.054804,
   0.056272,
   0.058218,
   0.060756,
   0.063994,
   0.068043,
   0.072966,
   0.078624,
   0.084832,
   0.091401,
   0.098146,
   0.104879,
   0.111414,
   0.117564,
   0.123143,
   0.127962,
   0.131880,
   0.134928,
   0.137182,
   0.138718,
   0.139612,
   0.139940,
   0.139777,
   0.139199,
   0.138282,
   0.137102,
   0.135720,
   0.134138,
   0.132342,
   0.130321,
   0.128061,
   0.125549,
   0.122773,
   0.119719,
   0.116375,
   0.112729,
   0.108798,
   0.104735,
   0.100721,
   0.096940,
   0.093573,
   0.090805,
   0.088818,
   0.087795,
   0.087918,
   0.089370,
   0.092286,
   0.096605,
   0.102218,
   0.109016,
   0.116890,
   0.125731,
   0.135430,
   0.145878,
   0.156966,
   0.168585,
   0.180620,
   0.192934,
   0.205384,
   0.217828,
   0.230123,
   0.242126,
   0.253693,
   0.264684,
   0.274953,
   0.284360,
   0.292782,
   0.300184,
   0.306551,
   0.311868,
   0.316122,
   0.319297,
   0.321378,
   0.322353,
   0.322205,
   0.320921,
   0.318533,
   0.315261,
   0.311374,
   0.307140,
   0.302826,
   0.298701,
   0.295031,
   0.292086,
   0.290132,
   0.289438,
   0.290194,
   0.292280,
   0.295498,
   0.299650,
   0.304539,
   0.309966,
   0.315735,
   0.321646,
   0.327503,
   0.333108,
   0.338298,
   0.343056,
   0.347398,
   0.351343,
   0.354907,
   0.358109,
   0.360965,
   0.363494,
   0.365712,
   0.367637,
   0.369293,
   0.370728,
   0.371998,
   0.373156,
   0.374258,
   0.375358,
   0.376512,
   0.377774,
   0.379198,
   0.380840,
   0.382741,
   0.386595,
   0.399803,
   0.407659,
   0.406533,
   0.400130,
   0.394313,
   0.396232,
   0.409613,
   0.438088,
   0.440224,
   0.430932,
   0.423992,
   0.415053,
   0.399207,
   0.387451,
   0.391033,
   0.406321,
   0.426814,
   0.449441,
   0.471572,
   0.488922,
   0.497845,
   0.498898,
   0.495356,
   0.497148,
   0.511933,
   0.531640,
   0.545227,
   0.545518,
   0.530898,
   0.518150,
   0.521565,
   0.527055,
   0.519631,
   0.509081,
   0.507000,
   0.507457,
   0.502571,
   0.494178,
   0.485761,
   0.477664,
   0.470999,
   0.473068,
   0.488283,
   0.503289,
   0.505617,
   0.504115,
   0.508735,
   0.512552,
   0.507708,
   0.499505,
   0.495564,
   0.499619,
   0.510889,
   0.514420,
   0.498573,
   0.479125,
   0.474122,
   0.483280,
   0.499725,
   0.508553,
   0.499410,
   0.488171,
   0.490491,
   0.494920,
   0.489566,
   0.487879,
   0.503651,
   0.526709,
   0.543041,
   0.529088,
   0.534213,
   0.516133,
   0.499777,
   0.524150,
   0.551404,
   0.573904,
   0.586990,
   0.577420,
   0.553104,
   0.528604,
   0.484830,
   0.460555,
   0.457316,
   0.424683,
   0.422271,
   0.490686,
   0.559619,
   0.571032,
   0.530603,
   0.493624,
   0.488482,
   0.507115,
   0.571032,
   0.552945,
   0.547651,
   0.583309,
   0.555441,
   0.572467,
   0.647303,
   0.683969,
   0.663053,
   0.651041,
   0.649886,
   0.619099,
   0.614266,
   0.640250,
   0.674547,
   0.680039,
   0.624371,
   0.638804,
   0.680933,
   0.610980,
   0.602350,
   0.576771,
   0.521005,
   0.555707,
   0.532663,
   0.539877,
   0.619152,
   0.609979,
   0.627621,
   0.652152,
   0.711097,
   0.756719,
   0.727720,
   0.640952,
   0.599963,
   0.633257,
   0.697361,
   0.689246,
   0.606785,
   0.539973,
   0.473002,
   0.425891,
   0.412963,
   0.460282,
   0.553002,
   0.578749,
   0.559493,
   0.547714,
   0.578426,
   0.558869,
   0.566011,
   0.558143,
   0.572516,
   0.630276,
   0.707717,
   0.729012,
   0.735340,
   0.782726,
   0.778781,
   0.692382,
   0.555797,
   0.372388,
   0.338492,
   0.492349,
   0.638808,
   0.739982,
   0.743029,
   0.621463,
   0.430658,
   0.404837,
   0.606788,
   0.796456,
   0.885766,
   0.937770,
   0.956418,
   0.978946,
   0.981083,
   1.010148,
   1.035098,
   1.031216,
   1.024864,
   0.988584,
   0.999442,
   1.016956,
   0.970567,
   0.989023,
   0.949500,
   0.920077,
   0.925559,
   0.950100,
   0.950037,
   0.984888,
   1.033830,
   1.031309,
   0.943021,
   0.855573,
   0.903128,
   0.990045,
   1.032507,
   1.027542,
   1.013131,
   0.997502,
   1.013653,
   1.028192,
   1.014513,
   0.998843,
   0.992167,
   1.030226,
   1.038837,
   0.989305,
   0.949873,
   0.962771,
   0.980287,
   1.000652,
   0.974853,
   0.958159,
   1.001424,
   1.032202,
   1.028497,
   1.022241,
   0.948812,
   0.976093,
   0.989122,
   1.002052,
   1.013142,
   0.997703,
   0.987561,
   0.979399,
   0.998324,
   0.940423,
   0.934009,
   0.962720,
   0.936489,
   0.893819,
   0.845374,
   0.749736,
   0.708452,
   0.763010,
   0.954411,
   1.028485,
   0.980266,
   1.022289,
   0.988704,
   0.884482,
   0.951511,
   1.006023,
   1.043840,
   1.104261,
   1.132157,
   1.083505,
   1.042518,
   1.002246,
   0.942492,
   0.984112,
   1.031980,
   1.046203,
   1.039404,
   1.084079,
   1.107501,
   1.122419,
   1.126165,
   1.126700,
   1.119448,
   1.140832,
   1.148889,
   1.136510,
   1.075876,
   1.055544,
   1.088654,
   1.134483,
   1.181551,
   1.161311,
   1.164698,
   1.152929,
   1.159868,
   1.198214,
   1.234892,
   1.221846,
   1.200387,
   1.179106,
   1.117748,
   1.073978,
   1.114894,
   1.152007,
   1.136836,
   1.118734,
   1.152851,
   1.176076,
   1.169021,
   1.188135,
   1.191075,
   1.137971,
   1.129433,
   1.139249,
   1.125385,
   1.126557,
   1.156630,
   1.182448,
   1.174766,
   1.190712,
   1.195150,
   1.179024,
   1.150763,
   1.134354,
   1.101270,
   1.110794,
   1.138954,
   1.138399,
   1.066038,
   1.075806,
   1.129420,
   1.106767,
   1.115930,
   1.124421,
   1.120798,
   1.075576,
   1.067032,
   1.084014,
   1.119381,
   1.168316,
   1.154134,
   1.097493,
   1.107819,
   1.141552,
   1.175629,
   1.157852,
   1.132251,
   1.125856,
   1.100564,
   1.131716,
   1.172533,
   1.179864,
   1.143053,
   1.143489,
   1.184110,
   1.173647,
   1.148543,
   1.155783,
   1.180118,
   1.175729,
   1.147534,
   1.138468,
   1.138260,
   1.114830,
   1.113831,
   1.082865,
   0.977497,
   0.850212,
   0.901823,
   0.995488,
   1.034131,
   1.089825,
   1.065994,
   1.058503,
   1.130816,
   1.146916,
   1.135687,
   1.097099,
   1.092692,
   1.025991,
   1.072267,
   1.122317,
   1.083743,
   1.081805,
   1.139212,
   1.143790,
   1.108595,
   1.107965,
   1.124110,
   1.109809,
   1.121668,
   1.059339,
   1.039594,
   1.094174,
   1.099920,
   1.064124,
   1.024789,
   1.035206,
   0.998285,
   1.005391,
   1.040158,
   1.070553,
   1.066205,
   1.014311,
   1.052170,
   1.065545,
   1.083395,
   1.120605,
   1.088857,
   1.067607,
   1.062770,
   1.022192,
   1.049026,
   1.093790,
   1.080644,
   1.038397,
   1.061921,
   1.063447,
   1.098195,
   1.084507,
   1.028381,
   1.032127,
   1.038988,
   1.018622,
   1.019408,
   1.027312,
   1.038444,
   1.028413,
   0.924266,
   0.872178,
   0.970631,
   1.001154,
   0.939886,
   0.996238,
   1.016288,
   1.041314,
   1.029188,
   1.039861,
   1.047907,
   1.043847,
   0.998947,
   0.992393,
   1.034852,
   1.063476,
   1.062916,
   1.041085,
   1.044022,
   1.021279,
   0.922179,
   0.924928,
   0.981627,
   1.029584,
   1.045607,
   1.087953,
   1.053209,
   1.035600,
   1.075469,
   1.083717,
   1.070269,
   1.042913,
   0.996295,
   0.999030,
   1.037931,
   1.027937,
   1.032081,
   1.048278,
   1.086432,
   1.080711,
   1.032578,
   1.007951,
   1.041746,
   1.046802,
   1.045533,
   1.029572,
   1.005873,
   0.993330,
   0.979018,
   0.993614,
   1.025111,
   1.028733,
   1.025359,
   1.015579,
   1.018615,
   1.058916,
   1.040251,
   1.046895,
   1.040377,
   1.046376,
   1.026163,
   1.028912,
   0.999486,
   0.987784,
   1.014601,
   1.016572,
   1.021553,
   1.018205,
   1.008199,
   1.000598,
   1.011577,
   1.033284,
   1.009962,
   0.998364,
   1.007082,
   1.019269,
   1.022446,
   1.037112,
   1.020686,
   1.003701,
   0.994204,
   0.990696,
   0.996812,
   1.001987,
   0.964995,
   0.947060,
   0.969438,
   0.963122,
   0.995208,
   1.025972,
   0.979310,
   0.982276,
   0.985006,
   0.999178,
   0.992079,
   0.981324,
   0.987851,
   0.989242,
   0.963374,
   0.947882,
   0.964674,
   0.987582,
   1.002060,
   0.982442,
   0.956544,
   0.969526,
   0.990155,
   0.975579,
   0.951798,
   0.933594,
   0.965109,
   0.994193,
   1.009760,
   1.004239,
   1.001005,
   1.002109,
   0.991465,
   0.974515,
   0.963858,
   0.967660,
   0.980555,
   0.988194,
   0.978846,
   0.950436,
   0.940580,
   0.960239,
   0.971476,
   0.976806,
   0.974555,
   0.979957,
   0.981532,
   0.996492,
   1.005099,
   1.003403,
   0.995526,
   0.995740,
   0.990496,
   0.972936,
   0.946792,
   0.953598,
   0.974785,
   0.985871,
   0.980900,
   0.970270,
   0.934373,
   0.864573,
   0.876269,
   0.934417,
   0.965096,
   0.965475,
   0.958556,
   0.964437,
   0.957161,
   0.944027,
   0.954890,
   0.965719,
   0.956865,
   0.937958,
   0.939735,
   0.955476,
   0.955890,
   0.952688,
   0.941394,
   0.934615,
   0.923587,
   0.934169,
   0.942438,
   0.933980,
   0.921210,
   0.913635,
   0.911503,
   0.907835,
   0.910085,
   0.926320,
   0.936683,
   0.933940,
   0.936992,
   0.937642,
   0.927962,
   0.933581,
   0.929454,
   0.938032,
   0.927567,
   0.908955,
   0.907572,
   0.907513,
   0.910056,
   0.896842,
   0.895669,
   0.910520,
   0.909812,
   0.896318,
   0.896758,
   0.895057,
   0.872979,
   0.877182,
   0.896407,
   0.891892,
   0.880954,
   0.858589,
   0.846707,
   0.863993,
   0.881457,
   0.896228,
   0.896090,
   0.881219,
   0.890893,
   0.901461,
   0.906596,
   0.904557,
   0.884330,
   0.881672,
   0.888088,
   0.872120,
   0.869624,
   0.862380,
   0.855611,
   0.861422,
   0.844496,
   0.853192,
   0.864854,
   0.875933,
   0.867368,
   0.851376,
   0.868513,
   0.876098,
   0.866651,
   0.847347,
   0.861636,
   0.864523,
   0.841318,
   0.838676,
   0.864351,
   0.870667,
   0.857240,
   0.848629,
   0.857822,
   0.868715,
   0.862103,
   0.842775,
   0.847588,
   0.864783,
   0.868211,
   0.864694,
   0.869044,
   0.870450,
   0.856228,
   0.846926,
   0.847139,
   0.836967,
   0.837471,
   0.839313,
   0.854860,
   0.848678,
   0.843607,
   0.845648,
   0.850992,
   0.837727,
   0.836231,
   0.834269,
   0.836008,
   0.838626,
   0.840156,
   0.843237,
   0.845631,
   0.828130,
   0.790335,
   0.819689,
   0.852062,
   0.856076,
   0.842439,
   0.839700,
   0.842665,
   0.836425,
   0.842065,
   0.841639,
   0.823590,
   0.804223,
   0.762209,
   0.648021,
   0.666102,
   0.754445,
   0.797992,
   0.816823,
   0.816405,
   0.813570,
   0.810318,
   0.824876,
   0.825196,
   0.823182,
   0.831804,
   0.836930,
   0.832980,
   0.814634,
   0.804904,
   0.806284,
   0.808772,
   0.818190,
   0.817340,
   0.805964,
   0.798478,
   0.804494,
   0.803553,
   0.799301,
   0.810475,
   0.811195,
   0.802622,
   0.799639,
   0.794975,
   0.787383,
   0.779463,
   0.782767,
   0.793494,
   0.793127,
   0.789998,
   0.786491,
   0.781269,
   0.778010,
   0.782148,
   0.786842,
   0.788262,
   0.785638,
   0.788695,
   0.786228,
   0.779838,
   0.783575,
   0.779464,
   0.782518,
   0.783250,
   0.782258,
   0.784135,
   0.784719,
   0.782801,
   0.781083,
   0.775664,
   0.749384,
   0.759043,
   0.769653,
   0.760259,
   0.758148,
   0.761403,
   0.763717,
   0.764479,
   0.756135,
   0.754695,
   0.765850,
   0.762501,
   0.758128,
   0.759229,
   0.761664,
   0.748935,
   0.754981,
   0.758384,
   0.766780,
   0.766015,
   0.775616,
   0.764264,
   0.765473,
   0.759457,
   0.763887,
   0.758078,
   0.752697,
   0.741832,
   0.737376,
   0.754981,
   0.759264,
   0.756872,
   0.744258,
   0.730892,
   0.734392,
   0.728992,
   0.732762,
   0.732160,
   0.738677,
   0.735881,
   0.742652,
   0.751226,
   0.751166,
   0.743964,
   0.742950,
   0.743314,
   0.742465,
   0.744735,
   0.742992,
   0.728284,
   0.726972,
   0.732078,
   0.736580,
   0.738227,
   0.728496,
   0.723989,
   0.724344,
   0.726077,
   0.725941,
   0.729319,
   0.740324,
   0.725429,
   0.721382,
   0.733679,
   0.732975,
   0.717104,
   0.734949,
   0.743631,
   0.722906,
   0.713110,
   0.712598,
   0.708456,
   0.718325,
   0.713405,
   0.697430,
   0.707479,
   0.702071,
   0.700089,
   0.719408,
   0.732791,
   0.721451,
   0.719256,
   0.718335,
   0.716936,
   0.712892,
   0.713963,
   0.717653,
   0.716444,
   0.710525,
   0.687657,
   0.673663,
   0.687313,
   0.705723,
   0.703576,
   0.692370,
   0.700191,
   0.704189,
   0.692431,
   0.689195,
   0.697959,
   0.707078,
   0.697194,
   0.688590,
   0.682401,
   0.684704,
   0.684927,
   0.689350,
   0.685832,
   0.687685,
   0.669443,
   0.659044,
   0.676230,
   0.682068,
   0.674217,
   0.663267,
   0.661813,
   0.661221,
   0.672428,
   0.681094,
   0.681848,
   0.676029,
   0.666026,
   0.672105,
   0.681396,
   0.677071,
   0.673014,
   0.677828,
   0.675125,
   0.672637,
   0.673775,
   0.670038,
   0.660100,
   0.668307,
   0.668034,
   0.657993,
   0.662477,
   0.665826,
   0.660040,
   0.658700,
   0.665195,
   0.668886,
   0.664635,
   0.663550,
   0.657479,
   0.658651,
   0.661316,
   0.658840,
   0.662676,
   0.665292,
   0.655775,
   0.670164,
   0.672052,
   0.666219,
   0.653129,
   0.611290,
   0.606291,
   0.635233,
   0.632692,
   0.621704,
   0.629620,
   0.636996,
   0.640830,
   0.637860,
   0.624383,
   0.611392,
   0.623968,
   0.643236,
   0.653810,
   0.655742,
   0.652221,
   0.640606,
   0.640817,
   0.644194,
   0.649812,
   0.636376,
   0.625265,
   0.636836,
   0.632804,
   0.633060,
   0.637299,
   0.635266,
   0.619467,
   0.618474,
   0.631123,
   0.633714,
   0.634705,
   0.627488,
   0.616163,
   0.620440,
   0.628363,
   0.628553,
   0.625486,
   0.617795,
   0.620771,
   0.616783,
   0.624080,
   0.629238,
   0.627971,
   0.617431,
   0.607492,
   0.614122,
   0.618694,
   0.616069,
   0.617175,
   0.619351,
   0.620739,
   0.618798,
   0.615263,
   0.611702,
   0.614463,
   0.615375,
   0.611409,
   0.612052,
   0.612897,
   0.606439,
   0.599442,
   0.597306,
   0.600465,
   0.589513,
   0.584220,
   0.589139,
   0.588770,
   0.598265,
   0.603115,
   0.600329,
   0.602717,
   0.602653,
   0.604556,
   0.605466,
   0.604000,
   0.602727,
   0.593947,
   0.587623,
   0.595909,
   0.594755,
   0.596778,
   0.596939,
   0.588863,
   0.587843,
   0.594343,
   0.593709,
   0.580926,
   0.579225,
   0.587098,
   0.592314,
   0.593759,
   0.586249,
   0.585698,
   0.584873,
   0.581339,
   0.581714,
   0.572434,
   0.576924,
   0.589917,
   0.588448,
   0.588986,
   0.587979,
   0.586745,
   0.581324,
   0.581904,
   0.581348,
   0.576898,
   0.576344,
   0.577847,
   0.576586,
   0.576570,
   0.573866,
   0.571924,
   0.564478,
   0.558322,
   0.564636,
   0.552652,
   0.561157,
   0.572662,
   0.565549,
   0.564172,
   0.560577,
   0.557524,
   0.557086,
   0.566314,
   0.570408,
   0.575209,
   0.563909,
   0.566225,
   0.570487,
   0.570171,
   0.566885,
   0.562098,
   0.567494,
   0.565070,
   0.557294,
   0.558089,
   0.558962,
   0.555228,
   0.549197,
   0.554155,
   0.556933,
   0.545594,
   0.540362,
   0.539693,
   0.539833,
   0.541472,
   0.552050,
   0.554465,
   0.552931,
   0.553642,
   0.556314,
   0.555861,
   0.553989,
   0.545097,
   0.548807,
   0.554764,
   0.552874,
   0.550779,
   0.552898,
   0.550916,
   0.547598,
   0.544660,
   0.549776,
   0.542902,
   0.538331,
   0.535633,
   0.539389,
   0.545883,
   0.545335,
   0.538016,
   0.535599,
   0.542335,
   0.542689,
   0.540952,
   0.535630,
   0.490901,
   0.470893,
   0.514467,
   0.526414,
   0.518684,
   0.524881,
   0.525936,
   0.519212,
   0.487419,
   0.407471,
   0.401569,
   0.492766,
   0.515825,
   0.519484,
   0.526037,
   0.521588,
   0.521520,
   0.519911,
   0.519046,
   0.520235,
   0.512490,
   0.513314,
   0.518876,
   0.515496,
   0.515871,
   0.518140,
   0.519725,
   0.520682,
   0.519957,
   0.520348,
   0.511970,
   0.504336,
   0.487738,
   0.409547,
   0.418029,
   0.479556,
   0.495208,
   0.498597,
   0.500423,
   0.497743,
   0.506303,
   0.508198,
   0.509212,
   0.503157,
   0.501675,
   0.507127,
   0.507222,
   0.501403,
   0.495484,
   0.490074,
   0.490033,
   0.482076,
   0.486496,
   0.496349,
   0.496813,
   0.496307,
   0.495849,
   0.500293,
   0.499571,
   0.491450,
   0.492389,
   0.495688,
   0.477477,
   0.480575,
   0.499143,
   0.495395,
   0.494858,
   0.498670,
   0.492179,
   0.491156,
   0.492327,
   0.492259,
   0.484416,
   0.470580,
   0.466465,
   0.482113,
   0.487935,
   0.489502,
   0.497404,
   0.497442,
   0.492702,
   0.494582,
   0.487847,
   0.486290,
   0.486322,
   0.485813,
   0.478543,
   0.475035,
   0.474066,
   0.473168,
   0.472302,
   0.471519,
   0.470889,
   0.470485,
   0.470363,
   0.470525,
   0.470959,
   0.471652,
   0.472592,
   0.473779,
   0.475214,
   0.476895,
   0.478795,
   0.480764,
   0.482624,
   0.484196,
   0.485211,
   0.485039,
   0.482959,
   0.478252,
   0.470682,
   0.461955,
   0.454262,
   0.449796,
   0.450024,
   0.453522,
   0.458146,
   0.461748,
   0.462797,
   0.462214,
   0.461536,
   0.462300,
   0.465498,
   0.469953,
   0.473944,
   0.475749,
   0.474246,
   0.470704,
   0.466991,
   0.464976,
   0.465909,
   0.468583,
   0.471171,
   0.471849,
   0.469451,
   0.465443,
   0.461949,
   0.461095,
   0.464222,
   0.469547,
   0.474503,
   0.476525,
   0.462616,
   0.459464,
   0.455986,
   0.453398,
   0.452549,
   0.452836,
   0.453291,
   0.452946,
   0.451086,
   0.448000,
   0.444234,
   0.440337,
   0.436754,
   0.433487,
   0.430431,
   0.427478,
   0.424541,
   0.421605,
   0.418674,
   0.415751,
   0.412971,
   0.410986,
   0.410581,
   0.412540,
   0.417245,
   0.423478,
   0.429617,
   0.434043,
   0.435635,
   0.435275,
   0.434346,
   0.434220,
   0.435876,
   0.438719,
   0.441763,
   0.444021,
   0.444649,
   0.443390,
   0.440129,
   0.434753,
   0.427451,
   0.419626,
   0.412987,
   0.409241,
   0.409554,
   0.412927,
   0.417820,
   0.422693,
   0.426269,
   0.428326,
   0.428906,
   0.428059,
   0.425881,
   0.422669,
   0.418764,
   0.414509,
   0.410262,
   0.406437,
   0.403463,
   0.401768,
   0.401634,
   0.402750,
   0.404660,
   0.406904,
   0.409052,
   0.410774,
   0.411768,
   0.411731,
   0.410575,
   0.409069,
   0.408203,
   0.408988,
   0.412034,
   0.416332,
   0.420468,
   0.423026,
   0.422995,
   0.420976,
   0.417971,
   0.414984,
   0.412793,
   0.411279,
   0.410100,
   0.408912,
   0.407508,
   0.406223,
   0.405527,
   0.405891,
   0.407603,
   0.410221,
   0.413115,
   0.415639,
   0.417280,
   0.418081,
   0.418223,
   0.417887,
   0.417225,
   0.416263,
   0.414997,
   0.413424,
   0.411547,
   0.409387,
   0.406973,
   0.404334,
   0.401548,
   0.398887,
   0.396677,
   0.395239,
   0.394787,
   0.395085,
   0.395789,
   0.396550,
   0.397080,
   0.397343,
   0.397363,
   0.397165,
   0.396804,
   0.396455,
   0.396325,
   0.396619,
   0.397461,
   0.398646,
   0.399885,
   0.400891,
   0.401431,
   0.401487,
   0.401098,
   0.400303,
   0.399120,
   0.397492,
   0.395343,
   0.392605,
   0.389359,
   0.386280,
   0.384191,
   0.383917,
   0.385913,
   0.389154,
   0.392248,
   0.393801,
   0.392834,
   0.390014,
   0.386422,
   0.383137,
   0.381000,
   0.379879,
   0.379403,
   0.379200,
   0.378987,
   0.378846,
   0.378947,
   0.379462,
   0.380468,
   0.381669,
   0.382678,
   0.383108,
   0.382692,
   0.381649,
   0.380319,
   0.379042,
   0.378047,
   0.377120,
   0.375934,
   0.374164,
   0.371700,
   0.369292,
   0.367906,
   0.368508,
   0.371659,
   0.376293,
   0.380942,
   0.384129,
   0.384796,
   0.383560,
   0.381460,
   0.379531,
   0.378591,
   0.378586,
   0.379237,
   0.380270,
   0.381371,
   0.382074,
   0.381873,
   0.380264,
   0.377008,
   0.372926,
   0.369107,
   0.366637,
   0.366250,
   0.367272,
   0.368671,
   0.369412,
   0.368776,
   0.367331,
   0.365962,
   0.365555,
   0.366683,
   0.368667,
   0.370515,
   0.371233,
   0.370109,
   0.367552,
   0.364250,
   0.360893,
   0.358076,
   0.356035,
   0.354911,
   0.354847,
   0.355883,
   0.357654,
   0.359694,
   0.361539,
   0.362803,
   0.363408,
   0.363354,
   0.362639,
   0.361297,
   0.359487,
   0.357403,
   0.355239,
   0.353207,
   0.351595,
   0.350708,
   0.350853,
   0.352147,
   0.353956,
   0.355453,
   0.355816,
   0.354485,
   0.351965,
   0.349024,
   0.346437,
   0.344827,
   0.344220,
   0.344490,
   0.345514,
   0.347116,
   0.348913,
   0.350473,
   0.351365,
   0.351325,
   0.350773,
   0.350296,
   0.350484,
   0.351670,
   0.353160,
   0.354004,
   0.353254,
   0.350370,
   0.346459,
   0.343038,
   0.341631,
   0.343221,
   0.346634,
   0.350157,
   0.352077,
   0.351232,
   0.348662,
   0.345961,
   0.344720,
   0.345993,
   0.348677,
   0.351131,
   0.351713,
   0.349345,
   0.345193,
   0.340988,
   0.338461,
   0.338830,
   0.341271,
   0.344447,
   0.347022,
   0.347942,
   0.347286,
   0.345414,
   0.342685,
   0.339451,
   0.336035,
   0.332748,
   0.329904,
   0.327731,
   0.326126,
   0.324898,
   0.323861
};

#endif
