#ifndef _G0V_H_
#define _G0V_H_

/* spectrum for g0v star           */
/* number of elements = 1895       */

static double _g0v_lambda[] = {
   1150.000000,
   1155.000000,
   1160.000000,
   1165.000000,
   1170.000000,
   1175.000000,
   1180.000000,
   1185.000000,
   1190.000000,
   1195.000000,
   1200.000000,
   1205.000000,
   1210.000000,
   1215.000000,
   1220.000000,
   1225.000000,
   1230.000000,
   1235.000000,
   1240.000000,
   1245.000000,
   1250.000000,
   1255.000000,
   1260.000000,
   1265.000000,
   1270.000000,
   1275.000000,
   1280.000000,
   1285.000000,
   1290.000000,
   1295.000000,
   1300.000000,
   1305.000000,
   1310.000000,
   1315.000000,
   1320.000000,
   1325.000000,
   1330.000000,
   1335.000000,
   1340.000000,
   1345.000000,
   1350.000000,
   1355.000000,
   1360.000000,
   1365.000000,
   1370.000000,
   1375.000000,
   1380.000000,
   1385.000000,
   1390.000000,
   1395.000000,
   1400.000000,
   1405.000000,
   1410.000000,
   1415.000000,
   1420.000000,
   1425.000000,
   1430.000000,
   1435.000000,
   1440.000000,
   1445.000000,
   1450.000000,
   1455.000000,
   1460.000000,
   1465.000000,
   1470.000000,
   1475.000000,
   1480.000000,
   1485.000000,
   1490.000000,
   1495.000000,
   1500.000000,
   1505.000000,
   1510.000000,
   1515.000000,
   1520.000000,
   1525.000000,
   1530.000000,
   1535.000000,
   1540.000000,
   1545.000000,
   1550.000000,
   1555.000000,
   1560.000000,
   1565.000000,
   1570.000000,
   1575.000000,
   1580.000000,
   1585.000000,
   1590.000000,
   1595.000000,
   1600.000000,
   1605.000000,
   1610.000000,
   1615.000000,
   1620.000000,
   1625.000000,
   1630.000000,
   1635.000000,
   1640.000000,
   1645.000000,
   1650.000000,
   1655.000000,
   1660.000000,
   1665.000000,
   1670.000000,
   1675.000000,
   1680.000000,
   1685.000000,
   1690.000000,
   1695.000000,
   1700.000000,
   1705.000000,
   1710.000000,
   1715.000000,
   1720.000000,
   1725.000000,
   1730.000000,
   1735.000000,
   1740.000000,
   1745.000000,
   1750.000000,
   1755.000000,
   1760.000000,
   1765.000000,
   1770.000000,
   1775.000000,
   1780.000000,
   1785.000000,
   1790.000000,
   1795.000000,
   1800.000000,
   1805.000000,
   1810.000000,
   1815.000000,
   1820.000000,
   1825.000000,
   1830.000000,
   1835.000000,
   1840.000000,
   1845.000000,
   1850.000000,
   1855.000000,
   1860.000000,
   1865.000000,
   1870.000000,
   1875.000000,
   1880.000000,
   1885.000000,
   1890.000000,
   1895.000000,
   1900.000000,
   1905.000000,
   1910.000000,
   1915.000000,
   1920.000000,
   1925.000000,
   1930.000000,
   1935.000000,
   1940.000000,
   1945.000000,
   1950.000000,
   1955.000000,
   1960.000000,
   1965.000000,
   1970.000000,
   1975.000000,
   1980.000000,
   1985.000000,
   1990.000000,
   1995.000000,
   2000.000000,
   2005.000000,
   2010.000000,
   2015.000000,
   2020.000000,
   2025.000000,
   2030.000000,
   2035.000000,
   2040.000000,
   2045.000000,
   2050.000000,
   2055.000000,
   2060.000000,
   2065.000000,
   2070.000000,
   2075.000000,
   2080.000000,
   2085.000000,
   2090.000000,
   2095.000000,
   2100.000000,
   2105.000000,
   2110.000000,
   2115.000000,
   2120.000000,
   2125.000000,
   2130.000000,
   2135.000000,
   2140.000000,
   2145.000000,
   2150.000000,
   2155.000000,
   2160.000000,
   2165.000000,
   2170.000000,
   2175.000000,
   2180.000000,
   2185.000000,
   2190.000000,
   2195.000000,
   2200.000000,
   2205.000000,
   2210.000000,
   2215.000000,
   2220.000000,
   2225.000000,
   2230.000000,
   2235.000000,
   2240.000000,
   2245.000000,
   2250.000000,
   2255.000000,
   2260.000000,
   2265.000000,
   2270.000000,
   2275.000000,
   2280.000000,
   2285.000000,
   2290.000000,
   2295.000000,
   2300.000000,
   2305.000000,
   2310.000000,
   2315.000000,
   2320.000000,
   2325.000000,
   2330.000000,
   2335.000000,
   2340.000000,
   2345.000000,
   2350.000000,
   2355.000000,
   2360.000000,
   2365.000000,
   2370.000000,
   2375.000000,
   2380.000000,
   2385.000000,
   2390.000000,
   2395.000000,
   2400.000000,
   2405.000000,
   2410.000000,
   2415.000000,
   2420.000000,
   2425.000000,
   2430.000000,
   2435.000000,
   2440.000000,
   2445.000000,
   2450.000000,
   2455.000000,
   2460.000000,
   2465.000000,
   2470.000000,
   2475.000000,
   2480.000000,
   2485.000000,
   2490.000000,
   2495.000000,
   2500.000000,
   2505.000000,
   2510.000000,
   2515.000000,
   2520.000000,
   2525.000000,
   2530.000000,
   2535.000000,
   2540.000000,
   2545.000000,
   2550.000000,
   2555.000000,
   2560.000000,
   2565.000000,
   2570.000000,
   2575.000000,
   2580.000000,
   2585.000000,
   2590.000000,
   2595.000000,
   2600.000000,
   2605.000000,
   2610.000000,
   2615.000000,
   2620.000000,
   2625.000000,
   2630.000000,
   2635.000000,
   2640.000000,
   2645.000000,
   2650.000000,
   2655.000000,
   2660.000000,
   2665.000000,
   2670.000000,
   2675.000000,
   2680.000000,
   2685.000000,
   2690.000000,
   2695.000000,
   2700.000000,
   2705.000000,
   2710.000000,
   2715.000000,
   2720.000000,
   2725.000000,
   2730.000000,
   2735.000000,
   2740.000000,
   2745.000000,
   2750.000000,
   2755.000000,
   2760.000000,
   2765.000000,
   2770.000000,
   2775.000000,
   2780.000000,
   2785.000000,
   2790.000000,
   2795.000000,
   2800.000000,
   2805.000000,
   2810.000000,
   2815.000000,
   2820.000000,
   2825.000000,
   2830.000000,
   2835.000000,
   2840.000000,
   2845.000000,
   2850.000000,
   2855.000000,
   2860.000000,
   2865.000000,
   2870.000000,
   2875.000000,
   2880.000000,
   2885.000000,
   2890.000000,
   2895.000000,
   2900.000000,
   2905.000000,
   2910.000000,
   2915.000000,
   2920.000000,
   2925.000000,
   2930.000000,
   2935.000000,
   2940.000000,
   2945.000000,
   2950.000000,
   2955.000000,
   2960.000000,
   2965.000000,
   2970.000000,
   2975.000000,
   2980.000000,
   2985.000000,
   2990.000000,
   2995.000000,
   3000.000000,
   3005.000000,
   3010.000000,
   3015.000000,
   3020.000000,
   3025.000000,
   3030.000000,
   3035.000000,
   3040.000000,
   3045.000000,
   3050.000000,
   3055.000000,
   3060.000000,
   3065.000000,
   3070.000000,
   3075.000000,
   3080.000000,
   3085.000000,
   3090.000000,
   3095.000000,
   3100.000000,
   3105.000000,
   3110.000000,
   3115.000000,
   3120.000000,
   3125.000000,
   3130.000000,
   3135.000000,
   3140.000000,
   3145.000000,
   3150.000000,
   3155.000000,
   3160.000000,
   3165.000000,
   3170.000000,
   3175.000000,
   3180.000000,
   3185.000000,
   3190.000000,
   3195.000000,
   3200.000000,
   3205.000000,
   3210.000000,
   3215.000000,
   3220.000000,
   3225.000000,
   3230.000000,
   3235.000000,
   3240.000000,
   3245.000000,
   3250.000000,
   3255.000000,
   3260.000000,
   3265.000000,
   3270.000000,
   3275.000000,
   3280.000000,
   3285.000000,
   3290.000000,
   3295.000000,
   3300.000000,
   3305.000000,
   3310.000000,
   3315.000000,
   3320.000000,
   3325.000000,
   3330.000000,
   3335.000000,
   3340.000000,
   3345.000000,
   3350.000000,
   3355.000000,
   3360.000000,
   3365.000000,
   3370.000000,
   3375.000000,
   3380.000000,
   3385.000000,
   3390.000000,
   3395.000000,
   3400.000000,
   3405.000000,
   3410.000000,
   3415.000000,
   3420.000000,
   3425.000000,
   3430.000000,
   3435.000000,
   3440.000000,
   3445.000000,
   3450.000000,
   3455.000000,
   3460.000000,
   3465.000000,
   3470.000000,
   3475.000000,
   3480.000000,
   3485.000000,
   3490.000000,
   3495.000000,
   3500.000000,
   3505.000000,
   3510.000000,
   3515.000000,
   3520.000000,
   3525.000000,
   3530.000000,
   3535.000000,
   3540.000000,
   3545.000000,
   3550.000000,
   3555.000000,
   3560.000000,
   3565.000000,
   3570.000000,
   3575.000000,
   3580.000000,
   3585.000000,
   3590.000000,
   3595.000000,
   3600.000000,
   3605.000000,
   3610.000000,
   3615.000000,
   3620.000000,
   3625.000000,
   3630.000000,
   3635.000000,
   3640.000000,
   3645.000000,
   3650.000000,
   3655.000000,
   3660.000000,
   3665.000000,
   3670.000000,
   3675.000000,
   3680.000000,
   3685.000000,
   3690.000000,
   3695.000000,
   3700.000000,
   3705.000000,
   3710.000000,
   3715.000000,
   3720.000000,
   3725.000000,
   3730.000000,
   3735.000000,
   3740.000000,
   3745.000000,
   3750.000000,
   3755.000000,
   3760.000000,
   3765.000000,
   3770.000000,
   3775.000000,
   3780.000000,
   3785.000000,
   3790.000000,
   3795.000000,
   3800.000000,
   3805.000000,
   3810.000000,
   3815.000000,
   3820.000000,
   3825.000000,
   3830.000000,
   3835.000000,
   3840.000000,
   3845.000000,
   3850.000000,
   3855.000000,
   3860.000000,
   3865.000000,
   3870.000000,
   3875.000000,
   3880.000000,
   3885.000000,
   3890.000000,
   3895.000000,
   3900.000000,
   3905.000000,
   3910.000000,
   3915.000000,
   3920.000000,
   3925.000000,
   3930.000000,
   3935.000000,
   3940.000000,
   3945.000000,
   3950.000000,
   3955.000000,
   3960.000000,
   3965.000000,
   3970.000000,
   3975.000000,
   3980.000000,
   3985.000000,
   3990.000000,
   3995.000000,
   4000.000000,
   4005.000000,
   4010.000000,
   4015.000000,
   4020.000000,
   4025.000000,
   4030.000000,
   4035.000000,
   4040.000000,
   4045.000000,
   4050.000000,
   4055.000000,
   4060.000000,
   4065.000000,
   4070.000000,
   4075.000000,
   4080.000000,
   4085.000000,
   4090.000000,
   4095.000000,
   4100.000000,
   4105.000000,
   4110.000000,
   4115.000000,
   4120.000000,
   4125.000000,
   4130.000000,
   4135.000000,
   4140.000000,
   4145.000000,
   4150.000000,
   4155.000000,
   4160.000000,
   4165.000000,
   4170.000000,
   4175.000000,
   4180.000000,
   4185.000000,
   4190.000000,
   4195.000000,
   4200.000000,
   4205.000000,
   4210.000000,
   4215.000000,
   4220.000000,
   4225.000000,
   4230.000000,
   4235.000000,
   4240.000000,
   4245.000000,
   4250.000000,
   4255.000000,
   4260.000000,
   4265.000000,
   4270.000000,
   4275.000000,
   4280.000000,
   4285.000000,
   4290.000000,
   4295.000000,
   4300.000000,
   4305.000000,
   4310.000000,
   4315.000000,
   4320.000000,
   4325.000000,
   4330.000000,
   4335.000000,
   4340.000000,
   4345.000000,
   4350.000000,
   4355.000000,
   4360.000000,
   4365.000000,
   4370.000000,
   4375.000000,
   4380.000000,
   4385.000000,
   4390.000000,
   4395.000000,
   4400.000000,
   4405.000000,
   4410.000000,
   4415.000000,
   4420.000000,
   4425.000000,
   4430.000000,
   4435.000000,
   4440.000000,
   4445.000000,
   4450.000000,
   4455.000000,
   4460.000000,
   4465.000000,
   4470.000000,
   4475.000000,
   4480.000000,
   4485.000000,
   4490.000000,
   4495.000000,
   4500.000000,
   4505.000000,
   4510.000000,
   4515.000000,
   4520.000000,
   4525.000000,
   4530.000000,
   4535.000000,
   4540.000000,
   4545.000000,
   4550.000000,
   4555.000000,
   4560.000000,
   4565.000000,
   4570.000000,
   4575.000000,
   4580.000000,
   4585.000000,
   4590.000000,
   4595.000000,
   4600.000000,
   4605.000000,
   4610.000000,
   4615.000000,
   4620.000000,
   4625.000000,
   4630.000000,
   4635.000000,
   4640.000000,
   4645.000000,
   4650.000000,
   4655.000000,
   4660.000000,
   4665.000000,
   4670.000000,
   4675.000000,
   4680.000000,
   4685.000000,
   4690.000000,
   4695.000000,
   4700.000000,
   4705.000000,
   4710.000000,
   4715.000000,
   4720.000000,
   4725.000000,
   4730.000000,
   4735.000000,
   4740.000000,
   4745.000000,
   4750.000000,
   4755.000000,
   4760.000000,
   4765.000000,
   4770.000000,
   4775.000000,
   4780.000000,
   4785.000000,
   4790.000000,
   4795.000000,
   4800.000000,
   4805.000000,
   4810.000000,
   4815.000000,
   4820.000000,
   4825.000000,
   4830.000000,
   4835.000000,
   4840.000000,
   4845.000000,
   4850.000000,
   4855.000000,
   4860.000000,
   4865.000000,
   4870.000000,
   4875.000000,
   4880.000000,
   4885.000000,
   4890.000000,
   4895.000000,
   4900.000000,
   4905.000000,
   4910.000000,
   4915.000000,
   4920.000000,
   4925.000000,
   4930.000000,
   4935.000000,
   4940.000000,
   4945.000000,
   4950.000000,
   4955.000000,
   4960.000000,
   4965.000000,
   4970.000000,
   4975.000000,
   4980.000000,
   4985.000000,
   4990.000000,
   4995.000000,
   5000.000000,
   5005.000000,
   5010.000000,
   5015.000000,
   5020.000000,
   5025.000000,
   5030.000000,
   5035.000000,
   5040.000000,
   5045.000000,
   5050.000000,
   5055.000000,
   5060.000000,
   5065.000000,
   5070.000000,
   5075.000000,
   5080.000000,
   5085.000000,
   5090.000000,
   5095.000000,
   5100.000000,
   5105.000000,
   5110.000000,
   5115.000000,
   5120.000000,
   5125.000000,
   5130.000000,
   5135.000000,
   5140.000000,
   5145.000000,
   5150.000000,
   5155.000000,
   5160.000000,
   5165.000000,
   5170.000000,
   5175.000000,
   5180.000000,
   5185.000000,
   5190.000000,
   5195.000000,
   5200.000000,
   5205.000000,
   5210.000000,
   5215.000000,
   5220.000000,
   5225.000000,
   5230.000000,
   5235.000000,
   5240.000000,
   5245.000000,
   5250.000000,
   5255.000000,
   5260.000000,
   5265.000000,
   5270.000000,
   5275.000000,
   5280.000000,
   5285.000000,
   5290.000000,
   5295.000000,
   5300.000000,
   5305.000000,
   5310.000000,
   5315.000000,
   5320.000000,
   5325.000000,
   5330.000000,
   5335.000000,
   5340.000000,
   5345.000000,
   5350.000000,
   5355.000000,
   5360.000000,
   5365.000000,
   5370.000000,
   5375.000000,
   5380.000000,
   5385.000000,
   5390.000000,
   5395.000000,
   5400.000000,
   5405.000000,
   5410.000000,
   5415.000000,
   5420.000000,
   5425.000000,
   5430.000000,
   5435.000000,
   5440.000000,
   5445.000000,
   5450.000000,
   5455.000000,
   5460.000000,
   5465.000000,
   5470.000000,
   5475.000000,
   5480.000000,
   5485.000000,
   5490.000000,
   5495.000000,
   5500.000000,
   5505.000000,
   5510.000000,
   5515.000000,
   5520.000000,
   5525.000000,
   5530.000000,
   5535.000000,
   5540.000000,
   5545.000000,
   5550.000000,
   5555.000000,
   5560.000000,
   5565.000000,
   5570.000000,
   5575.000000,
   5580.000000,
   5585.000000,
   5590.000000,
   5595.000000,
   5600.000000,
   5605.000000,
   5610.000000,
   5615.000000,
   5620.000000,
   5625.000000,
   5630.000000,
   5635.000000,
   5640.000000,
   5645.000000,
   5650.000000,
   5655.000000,
   5660.000000,
   5665.000000,
   5670.000000,
   5675.000000,
   5680.000000,
   5685.000000,
   5690.000000,
   5695.000000,
   5700.000000,
   5705.000000,
   5710.000000,
   5715.000000,
   5720.000000,
   5725.000000,
   5730.000000,
   5735.000000,
   5740.000000,
   5745.000000,
   5750.000000,
   5755.000000,
   5760.000000,
   5765.000000,
   5770.000000,
   5775.000000,
   5780.000000,
   5785.000000,
   5790.000000,
   5795.000000,
   5800.000000,
   5805.000000,
   5810.000000,
   5815.000000,
   5820.000000,
   5825.000000,
   5830.000000,
   5835.000000,
   5840.000000,
   5845.000000,
   5850.000000,
   5855.000000,
   5860.000000,
   5865.000000,
   5870.000000,
   5875.000000,
   5880.000000,
   5885.000000,
   5890.000000,
   5895.000000,
   5900.000000,
   5905.000000,
   5910.000000,
   5915.000000,
   5920.000000,
   5925.000000,
   5930.000000,
   5935.000000,
   5940.000000,
   5945.000000,
   5950.000000,
   5955.000000,
   5960.000000,
   5965.000000,
   5970.000000,
   5975.000000,
   5980.000000,
   5985.000000,
   5990.000000,
   5995.000000,
   6000.000000,
   6005.000000,
   6010.000000,
   6015.000000,
   6020.000000,
   6025.000000,
   6030.000000,
   6035.000000,
   6040.000000,
   6045.000000,
   6050.000000,
   6055.000000,
   6060.000000,
   6065.000000,
   6070.000000,
   6075.000000,
   6080.000000,
   6085.000000,
   6090.000000,
   6095.000000,
   6100.000000,
   6105.000000,
   6110.000000,
   6115.000000,
   6120.000000,
   6125.000000,
   6130.000000,
   6135.000000,
   6140.000000,
   6145.000000,
   6150.000000,
   6155.000000,
   6160.000000,
   6165.000000,
   6170.000000,
   6175.000000,
   6180.000000,
   6185.000000,
   6190.000000,
   6195.000000,
   6200.000000,
   6205.000000,
   6210.000000,
   6215.000000,
   6220.000000,
   6225.000000,
   6230.000000,
   6235.000000,
   6240.000000,
   6245.000000,
   6250.000000,
   6255.000000,
   6260.000000,
   6265.000000,
   6270.000000,
   6275.000000,
   6280.000000,
   6285.000000,
   6290.000000,
   6295.000000,
   6300.000000,
   6305.000000,
   6310.000000,
   6315.000000,
   6320.000000,
   6325.000000,
   6330.000000,
   6335.000000,
   6340.000000,
   6345.000000,
   6350.000000,
   6355.000000,
   6360.000000,
   6365.000000,
   6370.000000,
   6375.000000,
   6380.000000,
   6385.000000,
   6390.000000,
   6395.000000,
   6400.000000,
   6405.000000,
   6410.000000,
   6415.000000,
   6420.000000,
   6425.000000,
   6430.000000,
   6435.000000,
   6440.000000,
   6445.000000,
   6450.000000,
   6455.000000,
   6460.000000,
   6465.000000,
   6470.000000,
   6475.000000,
   6480.000000,
   6485.000000,
   6490.000000,
   6495.000000,
   6500.000000,
   6505.000000,
   6510.000000,
   6515.000000,
   6520.000000,
   6525.000000,
   6530.000000,
   6535.000000,
   6540.000000,
   6545.000000,
   6550.000000,
   6555.000000,
   6560.000000,
   6565.000000,
   6570.000000,
   6575.000000,
   6580.000000,
   6585.000000,
   6590.000000,
   6595.000000,
   6600.000000,
   6605.000000,
   6610.000000,
   6615.000000,
   6620.000000,
   6625.000000,
   6630.000000,
   6635.000000,
   6640.000000,
   6645.000000,
   6650.000000,
   6655.000000,
   6660.000000,
   6665.000000,
   6670.000000,
   6675.000000,
   6680.000000,
   6685.000000,
   6690.000000,
   6695.000000,
   6700.000000,
   6705.000000,
   6710.000000,
   6715.000000,
   6720.000000,
   6725.000000,
   6730.000000,
   6735.000000,
   6740.000000,
   6745.000000,
   6750.000000,
   6755.000000,
   6760.000000,
   6765.000000,
   6770.000000,
   6775.000000,
   6780.000000,
   6785.000000,
   6790.000000,
   6795.000000,
   6800.000000,
   6805.000000,
   6810.000000,
   6815.000000,
   6820.000000,
   6825.000000,
   6830.000000,
   6835.000000,
   6840.000000,
   6845.000000,
   6850.000000,
   6855.000000,
   6860.000000,
   6865.000000,
   6870.000000,
   6875.000000,
   6880.000000,
   6885.000000,
   6890.000000,
   6895.000000,
   6900.000000,
   6905.000000,
   6910.000000,
   6915.000000,
   6920.000000,
   6925.000000,
   6930.000000,
   6935.000000,
   6940.000000,
   6945.000000,
   6950.000000,
   6955.000000,
   6960.000000,
   6965.000000,
   6970.000000,
   6975.000000,
   6980.000000,
   6985.000000,
   6990.000000,
   6995.000000,
   7000.000000,
   7005.000000,
   7010.000000,
   7015.000000,
   7020.000000,
   7025.000000,
   7030.000000,
   7035.000000,
   7040.000000,
   7045.000000,
   7050.000000,
   7055.000000,
   7060.000000,
   7065.000000,
   7070.000000,
   7075.000000,
   7080.000000,
   7085.000000,
   7090.000000,
   7095.000000,
   7100.000000,
   7105.000000,
   7110.000000,
   7115.000000,
   7120.000000,
   7125.000000,
   7130.000000,
   7135.000000,
   7140.000000,
   7145.000000,
   7150.000000,
   7155.000000,
   7160.000000,
   7165.000000,
   7170.000000,
   7175.000000,
   7180.000000,
   7185.000000,
   7190.000000,
   7195.000000,
   7200.000000,
   7205.000000,
   7210.000000,
   7215.000000,
   7220.000000,
   7225.000000,
   7230.000000,
   7235.000000,
   7240.000000,
   7245.000000,
   7250.000000,
   7255.000000,
   7260.000000,
   7265.000000,
   7270.000000,
   7275.000000,
   7280.000000,
   7285.000000,
   7290.000000,
   7295.000000,
   7300.000000,
   7305.000000,
   7310.000000,
   7315.000000,
   7320.000000,
   7325.000000,
   7330.000000,
   7335.000000,
   7340.000000,
   7345.000000,
   7350.000000,
   7355.000000,
   7360.000000,
   7365.000000,
   7370.000000,
   7375.000000,
   7380.000000,
   7385.000000,
   7390.000000,
   7395.000000,
   7400.000000,
   7405.000000,
   7410.000000,
   7415.000000,
   7420.000000,
   7425.000000,
   7430.000000,
   7435.000000,
   7440.000000,
   7445.000000,
   7450.000000,
   7455.000000,
   7460.000000,
   7465.000000,
   7470.000000,
   7475.000000,
   7480.000000,
   7485.000000,
   7490.000000,
   7495.000000,
   7500.000000,
   7505.000000,
   7510.000000,
   7515.000000,
   7520.000000,
   7525.000000,
   7530.000000,
   7535.000000,
   7540.000000,
   7545.000000,
   7550.000000,
   7555.000000,
   7560.000000,
   7565.000000,
   7570.000000,
   7575.000000,
   7580.000000,
   7585.000000,
   7590.000000,
   7595.000000,
   7600.000000,
   7605.000000,
   7610.000000,
   7615.000000,
   7620.000000,
   7625.000000,
   7630.000000,
   7635.000000,
   7640.000000,
   7645.000000,
   7650.000000,
   7655.000000,
   7660.000000,
   7665.000000,
   7670.000000,
   7675.000000,
   7680.000000,
   7685.000000,
   7690.000000,
   7695.000000,
   7700.000000,
   7705.000000,
   7710.000000,
   7715.000000,
   7720.000000,
   7725.000000,
   7730.000000,
   7735.000000,
   7740.000000,
   7745.000000,
   7750.000000,
   7755.000000,
   7760.000000,
   7765.000000,
   7770.000000,
   7775.000000,
   7780.000000,
   7785.000000,
   7790.000000,
   7795.000000,
   7800.000000,
   7805.000000,
   7810.000000,
   7815.000000,
   7820.000000,
   7825.000000,
   7830.000000,
   7835.000000,
   7840.000000,
   7845.000000,
   7850.000000,
   7855.000000,
   7860.000000,
   7865.000000,
   7870.000000,
   7875.000000,
   7880.000000,
   7885.000000,
   7890.000000,
   7895.000000,
   7900.000000,
   7905.000000,
   7910.000000,
   7915.000000,
   7920.000000,
   7925.000000,
   7930.000000,
   7935.000000,
   7940.000000,
   7945.000000,
   7950.000000,
   7955.000000,
   7960.000000,
   7965.000000,
   7970.000000,
   7975.000000,
   7980.000000,
   7985.000000,
   7990.000000,
   7995.000000,
   8000.000000,
   8005.000000,
   8010.000000,
   8015.000000,
   8020.000000,
   8025.000000,
   8030.000000,
   8035.000000,
   8040.000000,
   8045.000000,
   8050.000000,
   8055.000000,
   8060.000000,
   8065.000000,
   8070.000000,
   8075.000000,
   8080.000000,
   8085.000000,
   8090.000000,
   8095.000000,
   8100.000000,
   8105.000000,
   8110.000000,
   8115.000000,
   8120.000000,
   8125.000000,
   8130.000000,
   8135.000000,
   8140.000000,
   8145.000000,
   8150.000000,
   8155.000000,
   8160.000000,
   8165.000000,
   8170.000000,
   8175.000000,
   8180.000000,
   8185.000000,
   8190.000000,
   8195.000000,
   8200.000000,
   8205.000000,
   8210.000000,
   8215.000000,
   8220.000000,
   8225.000000,
   8230.000000,
   8235.000000,
   8240.000000,
   8245.000000,
   8250.000000,
   8255.000000,
   8260.000000,
   8265.000000,
   8270.000000,
   8275.000000,
   8280.000000,
   8285.000000,
   8290.000000,
   8295.000000,
   8300.000000,
   8305.000000,
   8310.000000,
   8315.000000,
   8320.000000,
   8325.000000,
   8330.000000,
   8335.000000,
   8340.000000,
   8345.000000,
   8350.000000,
   8355.000000,
   8360.000000,
   8365.000000,
   8370.000000,
   8375.000000,
   8380.000000,
   8385.000000,
   8390.000000,
   8395.000000,
   8400.000000,
   8405.000000,
   8410.000000,
   8415.000000,
   8420.000000,
   8425.000000,
   8430.000000,
   8435.000000,
   8440.000000,
   8445.000000,
   8450.000000,
   8455.000000,
   8460.000000,
   8465.000000,
   8470.000000,
   8475.000000,
   8480.000000,
   8485.000000,
   8490.000000,
   8495.000000,
   8500.000000,
   8505.000000,
   8510.000000,
   8515.000000,
   8520.000000,
   8525.000000,
   8530.000000,
   8535.000000,
   8540.000000,
   8545.000000,
   8550.000000,
   8555.000000,
   8560.000000,
   8565.000000,
   8570.000000,
   8575.000000,
   8580.000000,
   8585.000000,
   8590.000000,
   8595.000000,
   8600.000000,
   8605.000000,
   8610.000000,
   8615.000000,
   8620.000000,
   8625.000000,
   8630.000000,
   8635.000000,
   8640.000000,
   8645.000000,
   8650.000000,
   8655.000000,
   8660.000000,
   8665.000000,
   8670.000000,
   8675.000000,
   8680.000000,
   8685.000000,
   8690.000000,
   8695.000000,
   8700.000000,
   8705.000000,
   8710.000000,
   8715.000000,
   8720.000000,
   8725.000000,
   8730.000000,
   8735.000000,
   8740.000000,
   8745.000000,
   8750.000000,
   8755.000000,
   8760.000000,
   8765.000000,
   8770.000000,
   8775.000000,
   8780.000000,
   8785.000000,
   8790.000000,
   8795.000000,
   8800.000000,
   8805.000000,
   8810.000000,
   8815.000000,
   8820.000000,
   8825.000000,
   8830.000000,
   8835.000000,
   8840.000000,
   8845.000000,
   8850.000000,
   8855.000000,
   8860.000000,
   8865.000000,
   8870.000000,
   8875.000000,
   8880.000000,
   8885.000000,
   8890.000000,
   8895.000000,
   8900.000000,
   8905.000000,
   8910.000000,
   8915.000000,
   8920.000000,
   8925.000000,
   8930.000000,
   8935.000000,
   8940.000000,
   8945.000000,
   8950.000000,
   8955.000000,
   8960.000000,
   8965.000000,
   8970.000000,
   8975.000000,
   8980.000000,
   8985.000000,
   8990.000000,
   8995.000000,
   9000.000000,
   9005.000000,
   9010.000000,
   9015.000000,
   9020.000000,
   9025.000000,
   9030.000000,
   9035.000000,
   9040.000000,
   9045.000000,
   9050.000000,
   9055.000000,
   9060.000000,
   9065.000000,
   9070.000000,
   9075.000000,
   9080.000000,
   9085.000000,
   9090.000000,
   9095.000000,
   9100.000000,
   9105.000000,
   9110.000000,
   9115.000000,
   9120.000000,
   9125.000000,
   9130.000000,
   9135.000000,
   9140.000000,
   9145.000000,
   9150.000000,
   9155.000000,
   9160.000000,
   9165.000000,
   9170.000000,
   9175.000000,
   9180.000000,
   9185.000000,
   9190.000000,
   9195.000000,
   9200.000000,
   9205.000000,
   9210.000000,
   9215.000000,
   9220.000000,
   9225.000000,
   9230.000000,
   9235.000000,
   9240.000000,
   9245.000000,
   9250.000000,
   9255.000000,
   9260.000000,
   9265.000000,
   9270.000000,
   9275.000000,
   9280.000000,
   9285.000000,
   9290.000000,
   9295.000000,
   9300.000000,
   9305.000000,
   9310.000000,
   9315.000000,
   9320.000000,
   9325.000000,
   9330.000000,
   9335.000000,
   9340.000000,
   9345.000000,
   9350.000000,
   9355.000000,
   9360.000000,
   9365.000000,
   9370.000000,
   9375.000000,
   9380.000000,
   9385.000000,
   9390.000000,
   9395.000000,
   9400.000000,
   9405.000000,
   9410.000000,
   9415.000000,
   9420.000000,
   9425.000000,
   9430.000000,
   9435.000000,
   9440.000000,
   9445.000000,
   9450.000000,
   9455.000000,
   9460.000000,
   9465.000000,
   9470.000000,
   9475.000000,
   9480.000000,
   9485.000000,
   9490.000000,
   9495.000000,
   9500.000000,
   9505.000000,
   9510.000000,
   9515.000000,
   9520.000000,
   9525.000000,
   9530.000000,
   9535.000000,
   9540.000000,
   9545.000000,
   9550.000000,
   9555.000000,
   9560.000000,
   9565.000000,
   9570.000000,
   9575.000000,
   9580.000000,
   9585.000000,
   9590.000000,
   9595.000000,
   9600.000000,
   9605.000000,
   9610.000000,
   9615.000000,
   9620.000000,
   9625.000000,
   9630.000000,
   9635.000000,
   9640.000000,
   9645.000000,
   9650.000000,
   9655.000000,
   9660.000000,
   9665.000000,
   9670.000000,
   9675.000000,
   9680.000000,
   9685.000000,
   9690.000000,
   9695.000000,
   9700.000000,
   9705.000000,
   9710.000000,
   9715.000000,
   9720.000000,
   9725.000000,
   9730.000000,
   9735.000000,
   9740.000000,
   9745.000000,
   9750.000000,
   9755.000000,
   9760.000000,
   9765.000000,
   9770.000000,
   9775.000000,
   9780.000000,
   9785.000000,
   9790.000000,
   9795.000000,
   9800.000000,
   9805.000000,
   9810.000000,
   9815.000000,
   9820.000000,
   9825.000000,
   9830.000000,
   9835.000000,
   9840.000000,
   9845.000000,
   9850.000000,
   9855.000000,
   9860.000000,
   9865.000000,
   9870.000000,
   9875.000000,
   9880.000000,
   9885.000000,
   9890.000000,
   9895.000000,
   9900.000000,
   9905.000000,
   9910.000000,
   9915.000000,
   9920.000000,
   9925.000000,
   9930.000000,
   9935.000000,
   9940.000000,
   9945.000000,
   9950.000000,
   9955.000000,
   9960.000000,
   9965.000000,
   9970.000000,
   9975.000000,
   9980.000000,
   9985.000000,
   9990.000000,
   9995.000000,
   10000.000000,
   10005.000000,
   10010.000000,
   10015.000000,
   10020.000000,
   10025.000000,
   10030.000000,
   10035.000000,
   10040.000000,
   10045.000000,
   10050.000000,
   10055.000000,
   10060.000000,
   10065.000000,
   10070.000000,
   10075.000000,
   10080.000000,
   10085.000000,
   10090.000000,
   10095.000000,
   10100.000000,
   10105.000000,
   10110.000000,
   10115.000000,
   10120.000000,
   10125.000000,
   10130.000000,
   10135.000000,
   10140.000000,
   10145.000000,
   10150.000000,
   10155.000000,
   10160.000000,
   10165.000000,
   10170.000000,
   10175.000000,
   10180.000000,
   10185.000000,
   10190.000000,
   10195.000000,
   10200.000000,
   10205.000000,
   10210.000000,
   10215.000000,
   10220.000000,
   10225.000000,
   10230.000000,
   10235.000000,
   10240.000000,
   10245.000000,
   10250.000000,
   10255.000000,
   10260.000000,
   10265.000000,
   10270.000000,
   10275.000000,
   10280.000000,
   10285.000000,
   10290.000000,
   10295.000000,
   10300.000000,
   10305.000000,
   10310.000000,
   10315.000000,
   10320.000000,
   10325.000000,
   10330.000000,
   10335.000000,
   10340.000000,
   10345.000000,
   10350.000000,
   10355.000000,
   10360.000000,
   10365.000000,
   10370.000000,
   10375.000000,
   10380.000000,
   10385.000000,
   10390.000000,
   10395.000000,
   10400.000000,
   10405.000000,
   10410.000000,
   10415.000000,
   10420.000000,
   10425.000000,
   10430.000000,
   10435.000000,
   10440.000000,
   10445.000000,
   10450.000000,
   10455.000000,
   10460.000000,
   10465.000000,
   10470.000000,
   10475.000000,
   10480.000000,
   10485.000000,
   10490.000000,
   10495.000000,
   10500.000000,
   10505.000000,
   10510.000000,
   10515.000000,
   10520.000000,
   10525.000000,
   10530.000000,
   10535.000000,
   10540.000000,
   10545.000000,
   10550.000000,
   10555.000000,
   10560.000000,
   10565.000000,
   10570.000000,
   10575.000000,
   10580.000000,
   10585.000000,
   10590.000000,
   10595.000000,
   10600.000000,
   10605.000000,
   10610.000000,
   10615.000000,
   10620.000000
};

static double _g0v_flux[] = {
   0.005568,
   0.006262,
   0.005137,
   0.000393,
   0.000000,
   0.000000,
   0.001373,
   0.000916,
   0.000000,
   0.000000,
   0.001071,
   0.003755,
   0.015969,
   0.028103,
   0.017298,
   0.002997,
   0.000390,
   0.000410,
   0.000359,
   0.000237,
   0.000183,
   0.000191,
   0.000184,
   0.000000,
   0.000000,
   0.000090,
   0.000333,
   0.000305,
   0.000061,
   0.000059,
   0.000183,
   0.000000,
   0.000138,
   0.000287,
   0.000218,
   0.000136,
   0.000210,
   0.000178,
   0.000064,
   0.000008,
   0.000086,
   0.000169,
   0.000196,
   0.000253,
   0.000148,
   0.000233,
   0.000304,
   0.000270,
   0.000074,
   0.000224,
   0.000319,
   0.000432,
   0.000359,
   0.000092,
   0.000000,
   0.000141,
   0.000302,
   0.000219,
   0.000376,
   0.000779,
   0.000619,
   0.000301,
   0.000140,
   0.000196,
   0.000360,
   0.000418,
   0.000417,
   0.000301,
   0.000321,
   0.000360,
   0.000356,
   0.000341,
   0.000338,
   0.000335,
   0.000300,
   0.000315,
   0.000385,
   0.000468,
   0.000508,
   0.000761,
   0.000739,
   0.000430,
   0.000547,
   0.000574,
   0.000571,
   0.000676,
   0.000515,
   0.000507,
   0.000536,
   0.000377,
   0.000307,
   0.000476,
   0.000453,
   0.000252,
   0.000205,
   0.000318,
   0.000498,
   0.000576,
   0.000350,
   0.000464,
   0.000585,
   0.000511,
   0.000742,
   0.000773,
   0.000642,
   0.000506,
   0.000727,
   0.000714,
   0.000683,
   0.000779,
   0.000911,
   0.000751,
   0.000623,
   0.000687,
   0.000818,
   0.000907,
   0.000893,
   0.001041,
   0.001090,
   0.001294,
   0.001299,
   0.001227,
   0.001337,
   0.001547,
   0.001632,
   0.001912,
   0.001688,
   0.001502,
   0.001060,
   0.001234,
   0.001607,
   0.001778,
   0.002067,
   0.002287,
   0.002464,
   0.002345,
   0.002334,
   0.002401,
   0.002359,
   0.002176,
   0.002165,
   0.002360,
   0.002684,
   0.002867,
   0.003029,
   0.003133,
   0.003246,
   0.003450,
   0.003609,
   0.003630,
   0.003279,
   0.003357,
   0.003703,
   0.003838,
   0.004118,
   0.003953,
   0.003675,
   0.003522,
   0.003972,
   0.005003,
   0.005491,
   0.009854,
   0.011015,
   0.005380,
   0.000323,
   0.000000,
   0.003551,
   0.016503,
   0.017094,
   0.009922,
   0.008479,
   0.000000,
   0.000000,
   0.000767,
   0.000000,
   0.000000,
   0.000000,
   0.000000,
   0.000000,
   0.000373,
   0.005816,
   0.007197,
   0.010819,
   0.005270,
   0.004503,
   0.013024,
   0.022061,
   0.017165,
   0.013358,
   0.009614,
   0.023675,
   0.034581,
   0.034888,
   0.028743,
   0.032316,
   0.032005,
   0.010763,
   0.027299,
   0.031674,
   0.033861,
   0.036645,
   0.031603,
   0.028944,
   0.010309,
   0.000000,
   0.013487,
   0.034719,
   0.037250,
   0.027126,
   0.021704,
   0.032443,
   0.029835,
   0.038823,
   0.018809,
   0.027060,
   0.029675,
   0.020550,
   0.029067,
   0.037738,
   0.037000,
   0.020310,
   0.038489,
   0.038941,
   0.023029,
   0.017175,
   0.017909,
   0.019181,
   0.014817,
   0.025586,
   0.028140,
   0.029322,
   0.026618,
   0.031070,
   0.023830,
   0.033672,
   0.048272,
   0.037628,
   0.028520,
   0.032935,
   0.027579,
   0.027517,
   0.030736,
   0.034547,
   0.032288,
   0.036801,
   0.032979,
   0.031603,
   0.027428,
   0.031485,
   0.030484,
   0.026130,
   0.025533,
   0.027365,
   0.030940,
   0.044130,
   0.054071,
   0.059264,
   0.059087,
   0.058640,
   0.049586,
   0.029322,
   0.020891,
   0.030710,
   0.035729,
   0.034178,
   0.034779,
   0.036509,
   0.029697,
   0.022669,
   0.035861,
   0.051847,
   0.052269,
   0.045548,
   0.034770,
   0.028990,
   0.028073,
   0.035563,
   0.039225,
   0.038290,
   0.041406,
   0.046537,
   0.055625,
   0.057817,
   0.067586,
   0.082034,
   0.086206,
   0.093775,
   0.088422,
   0.082902,
   0.068809,
   0.062508,
   0.060557,
   0.057619,
   0.064230,
   0.075573,
   0.070124,
   0.074676,
   0.126819,
   0.172825,
   0.169926,
   0.160393,
   0.182742,
   0.178673,
   0.165413,
   0.173931,
   0.168150,
   0.167933,
   0.168133,
   0.156300,
   0.150181,
   0.166547,
   0.176380,
   0.167305,
   0.156358,
   0.122404,
   0.133590,
   0.143249,
   0.122915,
   0.093631,
   0.083948,
   0.095076,
   0.106615,
   0.129156,
   0.153599,
   0.166201,
   0.145417,
   0.119950,
   0.103618,
   0.070346,
   0.049093,
   0.049771,
   0.063799,
   0.090759,
   0.144412,
   0.176345,
   0.188719,
   0.201244,
   0.199941,
   0.187501,
   0.152344,
   0.102288,
   0.120733,
   0.191419,
   0.216792,
   0.211284,
   0.209221,
   0.188852,
   0.225110,
   0.246785,
   0.251988,
   0.273220,
   0.282050,
   0.292369,
   0.300272,
   0.289217,
   0.275402,
   0.279604,
   0.288561,
   0.293069,
   0.298673,
   0.298728,
   0.310851,
   0.310574,
   0.282768,
   0.290084,
   0.313385,
   0.288678,
   0.269023,
   0.296222,
   0.298233,
   0.271526,
   0.282799,
   0.308869,
   0.298740,
   0.295041,
   0.332219,
   0.368470,
   0.365850,
   0.352478,
   0.363835,
   0.370972,
   0.344519,
   0.340660,
   0.360718,
   0.388657,
   0.391501,
   0.401776,
   0.418184,
   0.351214,
   0.316622,
   0.333154,
   0.395070,
   0.426091,
   0.407550,
   0.369228,
   0.373465,
   0.417637,
   0.417209,
   0.388024,
   0.360278,
   0.367326,
   0.353492,
   0.362540,
   0.389469,
   0.424060,
   0.423485,
   0.387392,
   0.376059,
   0.372622,
   0.387147,
   0.448019,
   0.461038,
   0.459252,
   0.447285,
   0.427595,
   0.404240,
   0.389809,
   0.394509,
   0.410469,
   0.427527,
   0.444437,
   0.463442,
   0.491824,
   0.530784,
   0.552139,
   0.533801,
   0.507433,
   0.507503,
   0.525929,
   0.545273,
   0.553203,
   0.543759,
   0.531371,
   0.530359,
   0.534235,
   0.533369,
   0.526375,
   0.516278,
   0.515499,
   0.531784,
   0.544798,
   0.535573,
   0.518725,
   0.511565,
   0.508607,
   0.502580,
   0.501860,
   0.515030,
   0.535843,
   0.555027,
   0.566060,
   0.565189,
   0.556986,
   0.548759,
   0.550415,
   0.565996,
   0.573467,
   0.553534,
   0.523949,
   0.507597,
   0.510849,
   0.531249,
   0.547560,
   0.541990,
   0.529327,
   0.526497,
   0.526418,
   0.520517,
   0.518282,
   0.529591,
   0.547840,
   0.562895,
   0.609416,
   0.582495,
   0.572505,
   0.557657,
   0.597805,
   0.630611,
   0.642856,
   0.644769,
   0.638829,
   0.628145,
   0.625595,
   0.576757,
   0.521381,
   0.529689,
   0.506145,
   0.473992,
   0.528528,
   0.613760,
   0.644310,
   0.597921,
   0.568421,
   0.584967,
   0.568020,
   0.607272,
   0.623025,
   0.596521,
   0.618668,
   0.621209,
   0.622870,
   0.685649,
   0.718694,
   0.716878,
   0.705750,
   0.706447,
   0.680284,
   0.669552,
   0.691695,
   0.712317,
   0.718768,
   0.692926,
   0.679275,
   0.716155,
   0.670110,
   0.644520,
   0.637840,
   0.574591,
   0.594600,
   0.610571,
   0.597213,
   0.672378,
   0.679494,
   0.676222,
   0.693636,
   0.762471,
   0.828209,
   0.833101,
   0.766068,
   0.702215,
   0.685614,
   0.762785,
   0.791941,
   0.741149,
   0.674114,
   0.600589,
   0.529918,
   0.503750,
   0.551216,
   0.653235,
   0.724502,
   0.737271,
   0.724377,
   0.755563,
   0.741151,
   0.733485,
   0.705552,
   0.659655,
   0.647641,
   0.713554,
   0.760280,
   0.724500,
   0.792062,
   0.815554,
   0.758655,
   0.647531,
   0.478491,
   0.402814,
   0.509812,
   0.637358,
   0.739544,
   0.760263,
   0.683491,
   0.526110,
   0.442419,
   0.557305,
   0.728125,
   0.848686,
   0.951137,
   1.005971,
   1.013685,
   1.007308,
   1.017449,
   1.045503,
   1.065638,
   1.070404,
   1.035609,
   1.025292,
   1.040209,
   1.008784,
   1.028027,
   1.010548,
   0.972773,
   0.951492,
   0.958357,
   0.967745,
   0.998547,
   1.041582,
   1.040886,
   0.972171,
   0.873314,
   0.886497,
   0.967773,
   1.030754,
   1.058795,
   1.063785,
   1.042245,
   1.039341,
   1.051877,
   1.041529,
   1.042037,
   1.030113,
   1.039251,
   1.050921,
   1.031409,
   1.003315,
   1.015107,
   1.016308,
   1.016517,
   1.007674,
   0.984579,
   1.017699,
   1.058301,
   1.060550,
   1.047615,
   0.993227,
   0.981905,
   0.999093,
   1.004547,
   1.035714,
   1.038147,
   1.044367,
   1.025799,
   1.017607,
   0.982285,
   0.963666,
   1.008319,
   1.005076,
   0.970156,
   0.921255,
   0.829759,
   0.777975,
   0.788151,
   0.900393,
   1.014618,
   1.002634,
   1.020015,
   0.995935,
   0.905359,
   0.927689,
   0.999854,
   1.039490,
   1.083088,
   1.113047,
   1.090442,
   1.052032,
   1.028671,
   0.979149,
   1.008329,
   1.039954,
   1.056632,
   1.050614,
   1.084628,
   1.106993,
   1.118620,
   1.143214,
   1.139138,
   1.134496,
   1.153768,
   1.149637,
   1.150061,
   1.097579,
   1.077826,
   1.107579,
   1.127370,
   1.161453,
   1.153133,
   1.166762,
   1.170473,
   1.176563,
   1.208707,
   1.251845,
   1.267320,
   1.231766,
   1.196352,
   1.140371,
   1.104848,
   1.127205,
   1.163286,
   1.171236,
   1.155930,
   1.163252,
   1.177508,
   1.173604,
   1.187192,
   1.198236,
   1.173677,
   1.156675,
   1.159335,
   1.156013,
   1.159833,
   1.166340,
   1.176406,
   1.190448,
   1.210731,
   1.214282,
   1.196706,
   1.178348,
   1.159961,
   1.136532,
   1.132796,
   1.151863,
   1.154312,
   1.117814,
   1.113480,
   1.127582,
   1.135522,
   1.147642,
   1.144088,
   1.132308,
   1.099933,
   1.084767,
   1.102082,
   1.125416,
   1.149631,
   1.163144,
   1.152892,
   1.152483,
   1.160086,
   1.173897,
   1.176366,
   1.162430,
   1.146407,
   1.127259,
   1.134103,
   1.168332,
   1.178307,
   1.169235,
   1.165435,
   1.175766,
   1.171554,
   1.164877,
   1.153734,
   1.166095,
   1.176961,
   1.152037,
   1.153152,
   1.150475,
   1.129039,
   1.119080,
   1.079234,
   0.997864,
   0.914770,
   0.940940,
   0.978955,
   1.016579,
   1.065578,
   1.072394,
   1.092370,
   1.133019,
   1.141143,
   1.127558,
   1.102811,
   1.092120,
   1.058081,
   1.070455,
   1.101217,
   1.098719,
   1.107051,
   1.139912,
   1.140384,
   1.121417,
   1.113479,
   1.123812,
   1.120589,
   1.119477,
   1.092578,
   1.065187,
   1.087794,
   1.085498,
   1.056090,
   1.028372,
   1.033473,
   1.025415,
   1.035773,
   1.059320,
   1.077359,
   1.068115,
   1.033955,
   1.048555,
   1.069173,
   1.083857,
   1.106486,
   1.095425,
   1.074727,
   1.061102,
   1.045800,
   1.059548,
   1.087775,
   1.091922,
   1.078383,
   1.082467,
   1.074985,
   1.096215,
   1.092309,
   1.055429,
   1.041375,
   1.036117,
   1.023933,
   1.039090,
   1.044472,
   1.039285,
   1.020320,
   0.948492,
   0.898313,
   0.935785,
   0.962065,
   0.946739,
   0.983844,
   1.000982,
   1.019038,
   1.014343,
   1.027292,
   1.039763,
   1.047221,
   1.018319,
   1.014001,
   1.035156,
   1.062371,
   1.070863,
   1.061899,
   1.058717,
   1.023201,
   0.950720,
   0.933969,
   0.977806,
   1.021283,
   1.044824,
   1.079353,
   1.065169,
   1.057424,
   1.073852,
   1.083525,
   1.076577,
   1.059611,
   1.020443,
   0.997760,
   1.019395,
   1.033365,
   1.053940,
   1.069061,
   1.083851,
   1.068760,
   1.034357,
   1.015556,
   1.036478,
   1.047942,
   1.046844,
   1.036182,
   1.014987,
   1.002398,
   0.983873,
   0.994129,
   1.012040,
   1.021926,
   1.027289,
   1.019786,
   1.016522,
   1.030337,
   1.025506,
   1.036769,
   1.036269,
   1.038646,
   1.025502,
   1.016206,
   0.996389,
   0.993368,
   1.015604,
   1.023030,
   1.024107,
   1.019751,
   1.009326,
   1.005249,
   1.006934,
   1.012559,
   1.002843,
   1.000546,
   1.014336,
   1.019905,
   1.025421,
   1.033542,
   1.027429,
   1.018458,
   1.006519,
   0.995780,
   0.992315,
   0.992727,
   0.973166,
   0.955928,
   0.966321,
   0.970112,
   0.986498,
   1.007785,
   0.988796,
   0.988231,
   0.993095,
   0.998662,
   0.999405,
   0.994377,
   0.993672,
   0.989497,
   0.975418,
   0.965405,
   0.971525,
   0.984644,
   0.993923,
   0.994105,
   0.981081,
   0.970163,
   0.962625,
   0.954145,
   0.948030,
   0.941775,
   0.958520,
   0.983652,
   1.002025,
   1.010321,
   1.011307,
   1.002892,
   0.991171,
   0.975023,
   0.968158,
   0.968485,
   0.972580,
   0.979722,
   0.984948,
   0.970691,
   0.953081,
   0.956816,
   0.966809,
   0.965591,
   0.966293,
   0.975764,
   0.976983,
   0.985463,
   0.993512,
   1.001167,
   0.996617,
   0.997991,
   0.978182,
   0.969246,
   0.958088,
   0.959549,
   0.966878,
   0.969131,
   0.964446,
   0.949122,
   0.911623,
   0.876200,
   0.890612,
   0.931781,
   0.945428,
   0.949856,
   0.950485,
   0.953245,
   0.950813,
   0.941779,
   0.940521,
   0.940519,
   0.936831,
   0.934767,
   0.937904,
   0.940676,
   0.943045,
   0.942433,
   0.934703,
   0.928825,
   0.923991,
   0.932389,
   0.934364,
   0.929124,
   0.922728,
   0.918481,
   0.914617,
   0.909835,
   0.917034,
   0.926914,
   0.933094,
   0.932562,
   0.932372,
   0.928913,
   0.925319,
   0.928304,
   0.927440,
   0.929407,
   0.923827,
   0.916967,
   0.915056,
   0.908540,
   0.901995,
   0.885867,
   0.893082,
   0.906533,
   0.911552,
   0.898875,
   0.896961,
   0.898216,
   0.882538,
   0.883720,
   0.885972,
   0.887401,
   0.878738,
   0.865601,
   0.863731,
   0.871620,
   0.887918,
   0.896682,
   0.898703,
   0.898603,
   0.899158,
   0.904905,
   0.901803,
   0.892565,
   0.884653,
   0.884994,
   0.879208,
   0.876018,
   0.875701,
   0.870607,
   0.866761,
   0.866165,
   0.860672,
   0.867042,
   0.865450,
   0.874492,
   0.857694,
   0.849835,
   0.864943,
   0.869082,
   0.864571,
   0.854055,
   0.860996,
   0.857150,
   0.844472,
   0.854609,
   0.863719,
   0.862679,
   0.853962,
   0.852849,
   0.856873,
   0.855930,
   0.851384,
   0.847894,
   0.853993,
   0.862271,
   0.862758,
   0.858124,
   0.860431,
   0.853968,
   0.844609,
   0.838944,
   0.839412,
   0.830886,
   0.834070,
   0.834561,
   0.842160,
   0.843445,
   0.839060,
   0.841165,
   0.843837,
   0.837389,
   0.835771,
   0.829716,
   0.827990,
   0.828906,
   0.829733,
   0.828255,
   0.822481,
   0.805121,
   0.793562,
   0.814709,
   0.834267,
   0.837735,
   0.829413,
   0.828272,
   0.824495,
   0.819018,
   0.820810,
   0.822928,
   0.808960,
   0.786666,
   0.741951,
   0.670800,
   0.687102,
   0.743526,
   0.781006,
   0.796740,
   0.804246,
   0.803271,
   0.795896,
   0.807305,
   0.812301,
   0.813856,
   0.821428,
   0.817005,
   0.808522,
   0.797471,
   0.791971,
   0.799049,
   0.802683,
   0.811086,
   0.811870,
   0.807826,
   0.807417,
   0.804207,
   0.797498,
   0.802655,
   0.809730,
   0.809585,
   0.800461,
   0.799990,
   0.799921,
   0.796574,
   0.786805,
   0.784858,
   0.792182,
   0.793048,
   0.794301,
   0.791951,
   0.793143,
   0.786043,
   0.787883,
   0.787661,
   0.788446,
   0.788188,
   0.792107,
   0.790975,
   0.789402,
   0.793049,
   0.792704,
   0.792793,
   0.789316,
   0.787412,
   0.786299,
   0.787806,
   0.788738,
   0.788537,
   0.782990,
   0.783317,
   0.778640,
   0.778152,
   0.780955,
   0.784395,
   0.785957,
   0.784493,
   0.780835,
   0.776517,
   0.773193,
   0.771935,
   0.773234,
   0.776298,
   0.779327,
   0.780252,
   0.778106,
   0.773080,
   0.767411,
   0.763395,
   0.762209,
   0.763550,
   0.765921,
   0.767822,
   0.768585,
   0.767989,
   0.766589,
   0.766085,
   0.753793,
   0.751119,
   0.756615,
   0.762450,
   0.762764,
   0.753659,
   0.747140,
   0.746495,
   0.741776,
   0.737869,
   0.740776,
   0.740943,
   0.734893,
   0.740879,
   0.749572,
   0.747748,
   0.743785,
   0.744819,
   0.739291,
   0.742547,
   0.746657,
   0.743092,
   0.737389,
   0.733946,
   0.736407,
   0.740149,
   0.736736,
   0.730888,
   0.732643,
   0.728697,
   0.729033,
   0.731667,
   0.744511,
   0.745576,
   0.738474,
   0.734524,
   0.739389,
   0.728387,
   0.714361,
   0.712412,
   0.705417,
   0.694584,
   0.682853,
   0.691301,
   0.697385,
   0.706920,
   0.711039,
   0.725921,
   0.728114,
   0.726959,
   0.731337,
   0.722955,
   0.716879,
   0.709245,
   0.708002,
   0.703439,
   0.709918,
   0.710440,
   0.712181,
   0.706133,
   0.692847,
   0.695137,
   0.690765,
   0.698116,
   0.721870,
   0.723667,
   0.719549,
   0.712632,
   0.704198,
   0.702782,
   0.707654,
   0.718064,
   0.727592,
   0.726350,
   0.720662,
   0.711991,
   0.711453,
   0.711881,
   0.716506,
   0.717312,
   0.715960,
   0.711428,
   0.702606,
   0.705430,
   0.705105,
   0.700943,
   0.695420,
   0.696275,
   0.705373,
   0.712525,
   0.721367,
   0.721140,
   0.713056,
   0.702377,
   0.695620,
   0.702489,
   0.704946,
   0.706292,
   0.710055,
   0.706266,
   0.699057,
   0.693741,
   0.692492,
   0.689359,
   0.694249,
   0.697794,
   0.693611,
   0.692273,
   0.694203,
   0.688268,
   0.682648,
   0.678750,
   0.678953,
   0.680067,
   0.682310,
   0.684663,
   0.681979,
   0.677592,
   0.676566,
   0.681779,
   0.690330,
   0.693854,
   0.684527,
   0.662965,
   0.639258,
   0.626127,
   0.629640,
   0.645051,
   0.660338,
   0.665480,
   0.659855,
   0.650795,
   0.646234,
   0.648055,
   0.651202,
   0.649371,
   0.641961,
   0.635107,
   0.636582,
   0.649184,
   0.667715,
   0.682422,
   0.685723,
   0.677030,
   0.662736,
   0.651393,
   0.648182,
   0.652800,
   0.660650,
   0.666625,
   0.668273,
   0.666920,
   0.663628,
   0.654528,
   0.648190,
   0.650050,
   0.651302,
   0.650970,
   0.650638,
   0.644855,
   0.644717,
   0.651796,
   0.655164,
   0.658373,
   0.656415,
   0.653339,
   0.647888,
   0.642599,
   0.641919,
   0.644783,
   0.647093,
   0.644718,
   0.641302,
   0.636203,
   0.628104,
   0.627603,
   0.634764,
   0.643264,
   0.646387,
   0.639796,
   0.627436,
   0.617537,
   0.612345,
   0.612585,
   0.618504,
   0.627202,
   0.631724,
   0.629085,
   0.627267,
   0.622162,
   0.617448,
   0.610394,
   0.611167,
   0.611065,
   0.616075,
   0.621156,
   0.618245,
   0.613527,
   0.610848,
   0.608526,
   0.607823,
   0.605586,
   0.607490,
   0.603269,
   0.596395,
   0.610193,
   0.613093,
   0.612650,
   0.613278,
   0.609848,
   0.602718,
   0.610664,
   0.609588,
   0.604241,
   0.598125,
   0.605266,
   0.610235,
   0.609656,
   0.606921,
   0.605792,
   0.602608,
   0.602266,
   0.597744,
   0.601157,
   0.597882,
   0.605497,
   0.608935,
   0.607470,
   0.608825,
   0.608441,
   0.608247,
   0.598917,
   0.598243,
   0.597841,
   0.589579,
   0.582508,
   0.582223,
   0.568920,
   0.572048,
   0.586353,
   0.572092,
   0.571210,
   0.578448,
   0.571820,
   0.569558,
   0.591239,
   0.602178,
   0.593461,
   0.586663,
   0.576260,
   0.545383,
   0.547744,
   0.582891,
   0.590164,
   0.591065,
   0.593103,
   0.585013,
   0.591520,
   0.593219,
   0.579149,
   0.569395,
   0.572952,
   0.571865,
   0.565931,
   0.574127,
   0.568913,
   0.568126,
   0.568660,
   0.566766,
   0.560549,
   0.562352,
   0.558846,
   0.555516,
   0.561230,
   0.563732,
   0.571610,
   0.568167,
   0.566163,
   0.568786,
   0.568647,
   0.565674,
   0.565191,
   0.557850,
   0.564144,
   0.563866,
   0.560970,
   0.559745,
   0.558080,
   0.555138,
   0.554169,
   0.553211,
   0.551232,
   0.547568,
   0.549096,
   0.550100,
   0.557642,
   0.553998,
   0.549470,
   0.543609,
   0.544773,
   0.550807,
   0.553223,
   0.551656,
   0.533875,
   0.498281,
   0.520467,
   0.538532,
   0.535096,
   0.535914,
   0.539264,
   0.528971,
   0.515852,
   0.471712,
   0.426339,
   0.488739,
   0.517962,
   0.528114,
   0.534707,
   0.538065,
   0.533511,
   0.536484,
   0.530452,
   0.534104,
   0.530050,
   0.526629,
   0.530579,
   0.529919,
   0.524599,
   0.525667,
   0.528649,
   0.532330,
   0.531428,
   0.532934,
   0.528041,
   0.520388,
   0.512081,
   0.473825,
   0.438284,
   0.478899,
   0.505681,
   0.515276,
   0.519044,
   0.512663,
   0.522117,
   0.525389,
   0.528059,
   0.527901,
   0.524765,
   0.526325,
   0.527372,
   0.520702,
   0.515992,
   0.514106,
   0.513928,
   0.512125,
   0.508842,
   0.509255,
   0.514826,
   0.516838,
   0.515090,
   0.518657,
   0.520916,
   0.513503,
   0.507404,
   0.511952,
   0.505127,
   0.496596,
   0.509890,
   0.513318,
   0.504997,
   0.507690,
   0.512504,
   0.512865,
   0.505864,
   0.508286,
   0.506065,
   0.497565,
   0.490269,
   0.490143,
   0.500276,
   0.502273,
   0.503489,
   0.503652,
   0.504805,
   0.503039,
   0.506512,
   0.506550,
   0.500908,
   0.506089,
   0.502806,
   0.498759,
   0.506170,
   0.511827,
   0.505850,
   0.500775,
   0.499709,
   0.500955,
   0.492088,
   0.488083,
   0.487698,
   0.491215,
   0.485960,
   0.459855,
   0.457865,
   0.472057,
   0.461778,
   0.462464,
   0.458797,
   0.455791,
   0.472918,
   0.483577,
   0.504955,
   0.515097,
   0.517145,
   0.514302,
   0.508012,
   0.504459,
   0.485104,
   0.484520,
   0.471856,
   0.467920,
   0.461781,
   0.454091,
   0.465221,
   0.469905,
   0.472009,
   0.477689,
   0.486449,
   0.475476,
   0.489024,
   0.483694,
   0.464731,
   0.466095,
   0.482693,
   0.482157,
   0.456006,
   0.454678,
   0.475505,
   0.480395,
   0.454311,
   0.457495,
   0.469474,
   0.480242,
   0.482810,
   0.479379,
   0.486967,
   0.476252,
   0.465342,
   0.463313,
   0.465352,
   0.459523,
   0.463445,
   0.466292,
   0.470590,
   0.472063,
   0.478280,
   0.478043,
   0.489909,
   0.503033,
   0.502159,
   0.485515,
   0.491674,
   0.493606,
   0.488787,
   0.476804,
   0.472756,
   0.461970,
   0.447872,
   0.417759,
   0.421626,
   0.407751,
   0.409434,
   0.381227,
   0.359435,
   0.383554,
   0.419438,
   0.387952,
   0.434401,
   0.416252,
   0.413129,
   0.427199,
   0.440115,
   0.478540,
   0.522376,
   0.528095,
   0.504749,
   0.488116,
   0.463975,
   0.475812,
   0.473115,
   0.425160,
   0.427523,
   0.426021,
   0.387222,
   0.435560,
   0.445745,
   0.415209,
   0.408744,
   0.454923,
   0.459095,
   0.446566,
   0.432775,
   0.471081,
   0.459468,
   0.409803,
   0.416625,
   0.467359,
   0.486757,
   0.429709,
   0.407792,
   0.428391,
   0.444373,
   0.442089,
   0.437727,
   0.406707,
   0.416572,
   0.413983,
   0.426272,
   0.417065,
   0.449231,
   0.449696,
   0.438378,
   0.436050,
   0.406447,
   0.425178,
   0.437769,
   0.420244,
   0.428150,
   0.412502,
   0.408156,
   0.412582,
   0.420105,
   0.411963,
   0.410384,
   0.405610,
   0.414492,
   0.408382,
   0.405424,
   0.413023,
   0.422441,
   0.432009,
   0.431344,
   0.431896,
   0.433684,
   0.435281,
   0.433295,
   0.432488,
   0.428905,
   0.424328,
   0.419486,
   0.416714,
   0.411405,
   0.404676,
   0.402138,
   0.399262,
   0.395528,
   0.391523,
   0.388885,
   0.400510,
   0.396049,
   0.393048,
   0.390981,
   0.392528,
   0.400954,
   0.400161,
   0.402730,
   0.400484,
   0.400261,
   0.400388,
   0.395165,
   0.396722,
   0.399149,
   0.399637,
   0.396438,
   0.395385,
   0.399903,
   0.393535,
   0.392804,
   0.397894,
   0.399331,
   0.395204,
   0.397795,
   0.398189,
   0.396878,
   0.395090,
   0.390276,
   0.394393,
   0.390867,
   0.393277,
   0.397310,
   0.389411,
   0.392159,
   0.398340,
   0.397373,
   0.387942,
   0.389606,
   0.393232,
   0.392578,
   0.390144,
   0.397616,
   0.383858,
   0.391039,
   0.391579,
   0.386207,
   0.381384,
   0.386374,
   0.392817,
   0.389623,
   0.381732,
   0.387303,
   0.397085,
   0.389185,
   0.375507,
   0.373774,
   0.353064,
   0.363768,
   0.371119,
   0.366973,
   0.366916,
   0.370565,
   0.381605,
   0.369964,
   0.372688,
   0.382075,
   0.383223,
   0.374972,
   0.359715,
   0.374028,
   0.374754,
   0.373591,
   0.372077,
   0.370237,
   0.370237,
   0.369350,
   0.369461,
   0.364465,
   0.372882,
   0.377186,
   0.367900,
   0.361753,
   0.365755,
   0.351961,
   0.349906,
   0.347970,
   0.346749,
   0.346839,
   0.348551,
   0.351032,
   0.353146,
   0.353752,
   0.352084,
   0.348865,
   0.345190,
   0.342156,
   0.340655,
   0.340767,
   0.342370,
   0.345341,
   0.349436,
   0.353922,
   0.357942,
   0.360644,
   0.361385,
   0.360384,
   0.358075,
   0.354891,
   0.351286,
   0.347804,
   0.345009,
   0.343466,
   0.343554,
   0.344909,
   0.346984,
   0.349229,
   0.351183,
   0.352736,
   0.353863,
   0.354542,
   0.354761,
   0.354567,
   0.354017,
   0.353169,
   0.352131,
   0.351210,
   0.350762,
   0.351144,
   0.352552,
   0.354547,
   0.356532,
   0.357910,
   0.358240,
   0.357722,
   0.356713,
   0.355571,
   0.354554,
   0.353520,
   0.352232,
   0.350448,
   0.348131,
   0.346056,
   0.345198,
   0.346533,
   0.350555,
   0.355829,
   0.360437,
   0.362461,
   0.360580,
   0.355860,
   0.349963,
   0.344551,
   0.340935,
   0.339022,
   0.338366,
   0.338522,
   0.339059,
   0.339602,
   0.339788,
   0.339255,
   0.337781,
   0.335709,
   0.333521,
   0.331698,
   0.330631,
   0.330340,
   0.330755,
   0.331804,
   0.333406,
   0.335430,
   0.337735,
   0.340182
};

#endif
