#ifndef _G2IV_H_
#define _G2IV_H_

/* spectrum for g2iv star           */
/* number of elements = 1895       */

static double _g2iv_lambda[] = {
   1150.000000,
   1155.000000,
   1160.000000,
   1165.000000,
   1170.000000,
   1175.000000,
   1180.000000,
   1185.000000,
   1190.000000,
   1195.000000,
   1200.000000,
   1205.000000,
   1210.000000,
   1215.000000,
   1220.000000,
   1225.000000,
   1230.000000,
   1235.000000,
   1240.000000,
   1245.000000,
   1250.000000,
   1255.000000,
   1260.000000,
   1265.000000,
   1270.000000,
   1275.000000,
   1280.000000,
   1285.000000,
   1290.000000,
   1295.000000,
   1300.000000,
   1305.000000,
   1310.000000,
   1315.000000,
   1320.000000,
   1325.000000,
   1330.000000,
   1335.000000,
   1340.000000,
   1345.000000,
   1350.000000,
   1355.000000,
   1360.000000,
   1365.000000,
   1370.000000,
   1375.000000,
   1380.000000,
   1385.000000,
   1390.000000,
   1395.000000,
   1400.000000,
   1405.000000,
   1410.000000,
   1415.000000,
   1420.000000,
   1425.000000,
   1430.000000,
   1435.000000,
   1440.000000,
   1445.000000,
   1450.000000,
   1455.000000,
   1460.000000,
   1465.000000,
   1470.000000,
   1475.000000,
   1480.000000,
   1485.000000,
   1490.000000,
   1495.000000,
   1500.000000,
   1505.000000,
   1510.000000,
   1515.000000,
   1520.000000,
   1525.000000,
   1530.000000,
   1535.000000,
   1540.000000,
   1545.000000,
   1550.000000,
   1555.000000,
   1560.000000,
   1565.000000,
   1570.000000,
   1575.000000,
   1580.000000,
   1585.000000,
   1590.000000,
   1595.000000,
   1600.000000,
   1605.000000,
   1610.000000,
   1615.000000,
   1620.000000,
   1625.000000,
   1630.000000,
   1635.000000,
   1640.000000,
   1645.000000,
   1650.000000,
   1655.000000,
   1660.000000,
   1665.000000,
   1670.000000,
   1675.000000,
   1680.000000,
   1685.000000,
   1690.000000,
   1695.000000,
   1700.000000,
   1705.000000,
   1710.000000,
   1715.000000,
   1720.000000,
   1725.000000,
   1730.000000,
   1735.000000,
   1740.000000,
   1745.000000,
   1750.000000,
   1755.000000,
   1760.000000,
   1765.000000,
   1770.000000,
   1775.000000,
   1780.000000,
   1785.000000,
   1790.000000,
   1795.000000,
   1800.000000,
   1805.000000,
   1810.000000,
   1815.000000,
   1820.000000,
   1825.000000,
   1830.000000,
   1835.000000,
   1840.000000,
   1845.000000,
   1850.000000,
   1855.000000,
   1860.000000,
   1865.000000,
   1870.000000,
   1875.000000,
   1880.000000,
   1885.000000,
   1890.000000,
   1895.000000,
   1900.000000,
   1905.000000,
   1910.000000,
   1915.000000,
   1920.000000,
   1925.000000,
   1930.000000,
   1935.000000,
   1940.000000,
   1945.000000,
   1950.000000,
   1955.000000,
   1960.000000,
   1965.000000,
   1970.000000,
   1975.000000,
   1980.000000,
   1985.000000,
   1990.000000,
   1995.000000,
   2000.000000,
   2005.000000,
   2010.000000,
   2015.000000,
   2020.000000,
   2025.000000,
   2030.000000,
   2035.000000,
   2040.000000,
   2045.000000,
   2050.000000,
   2055.000000,
   2060.000000,
   2065.000000,
   2070.000000,
   2075.000000,
   2080.000000,
   2085.000000,
   2090.000000,
   2095.000000,
   2100.000000,
   2105.000000,
   2110.000000,
   2115.000000,
   2120.000000,
   2125.000000,
   2130.000000,
   2135.000000,
   2140.000000,
   2145.000000,
   2150.000000,
   2155.000000,
   2160.000000,
   2165.000000,
   2170.000000,
   2175.000000,
   2180.000000,
   2185.000000,
   2190.000000,
   2195.000000,
   2200.000000,
   2205.000000,
   2210.000000,
   2215.000000,
   2220.000000,
   2225.000000,
   2230.000000,
   2235.000000,
   2240.000000,
   2245.000000,
   2250.000000,
   2255.000000,
   2260.000000,
   2265.000000,
   2270.000000,
   2275.000000,
   2280.000000,
   2285.000000,
   2290.000000,
   2295.000000,
   2300.000000,
   2305.000000,
   2310.000000,
   2315.000000,
   2320.000000,
   2325.000000,
   2330.000000,
   2335.000000,
   2340.000000,
   2345.000000,
   2350.000000,
   2355.000000,
   2360.000000,
   2365.000000,
   2370.000000,
   2375.000000,
   2380.000000,
   2385.000000,
   2390.000000,
   2395.000000,
   2400.000000,
   2405.000000,
   2410.000000,
   2415.000000,
   2420.000000,
   2425.000000,
   2430.000000,
   2435.000000,
   2440.000000,
   2445.000000,
   2450.000000,
   2455.000000,
   2460.000000,
   2465.000000,
   2470.000000,
   2475.000000,
   2480.000000,
   2485.000000,
   2490.000000,
   2495.000000,
   2500.000000,
   2505.000000,
   2510.000000,
   2515.000000,
   2520.000000,
   2525.000000,
   2530.000000,
   2535.000000,
   2540.000000,
   2545.000000,
   2550.000000,
   2555.000000,
   2560.000000,
   2565.000000,
   2570.000000,
   2575.000000,
   2580.000000,
   2585.000000,
   2590.000000,
   2595.000000,
   2600.000000,
   2605.000000,
   2610.000000,
   2615.000000,
   2620.000000,
   2625.000000,
   2630.000000,
   2635.000000,
   2640.000000,
   2645.000000,
   2650.000000,
   2655.000000,
   2660.000000,
   2665.000000,
   2670.000000,
   2675.000000,
   2680.000000,
   2685.000000,
   2690.000000,
   2695.000000,
   2700.000000,
   2705.000000,
   2710.000000,
   2715.000000,
   2720.000000,
   2725.000000,
   2730.000000,
   2735.000000,
   2740.000000,
   2745.000000,
   2750.000000,
   2755.000000,
   2760.000000,
   2765.000000,
   2770.000000,
   2775.000000,
   2780.000000,
   2785.000000,
   2790.000000,
   2795.000000,
   2800.000000,
   2805.000000,
   2810.000000,
   2815.000000,
   2820.000000,
   2825.000000,
   2830.000000,
   2835.000000,
   2840.000000,
   2845.000000,
   2850.000000,
   2855.000000,
   2860.000000,
   2865.000000,
   2870.000000,
   2875.000000,
   2880.000000,
   2885.000000,
   2890.000000,
   2895.000000,
   2900.000000,
   2905.000000,
   2910.000000,
   2915.000000,
   2920.000000,
   2925.000000,
   2930.000000,
   2935.000000,
   2940.000000,
   2945.000000,
   2950.000000,
   2955.000000,
   2960.000000,
   2965.000000,
   2970.000000,
   2975.000000,
   2980.000000,
   2985.000000,
   2990.000000,
   2995.000000,
   3000.000000,
   3005.000000,
   3010.000000,
   3015.000000,
   3020.000000,
   3025.000000,
   3030.000000,
   3035.000000,
   3040.000000,
   3045.000000,
   3050.000000,
   3055.000000,
   3060.000000,
   3065.000000,
   3070.000000,
   3075.000000,
   3080.000000,
   3085.000000,
   3090.000000,
   3095.000000,
   3100.000000,
   3105.000000,
   3110.000000,
   3115.000000,
   3120.000000,
   3125.000000,
   3130.000000,
   3135.000000,
   3140.000000,
   3145.000000,
   3150.000000,
   3155.000000,
   3160.000000,
   3165.000000,
   3170.000000,
   3175.000000,
   3180.000000,
   3185.000000,
   3190.000000,
   3195.000000,
   3200.000000,
   3205.000000,
   3210.000000,
   3215.000000,
   3220.000000,
   3225.000000,
   3230.000000,
   3235.000000,
   3240.000000,
   3245.000000,
   3250.000000,
   3255.000000,
   3260.000000,
   3265.000000,
   3270.000000,
   3275.000000,
   3280.000000,
   3285.000000,
   3290.000000,
   3295.000000,
   3300.000000,
   3305.000000,
   3310.000000,
   3315.000000,
   3320.000000,
   3325.000000,
   3330.000000,
   3335.000000,
   3340.000000,
   3345.000000,
   3350.000000,
   3355.000000,
   3360.000000,
   3365.000000,
   3370.000000,
   3375.000000,
   3380.000000,
   3385.000000,
   3390.000000,
   3395.000000,
   3400.000000,
   3405.000000,
   3410.000000,
   3415.000000,
   3420.000000,
   3425.000000,
   3430.000000,
   3435.000000,
   3440.000000,
   3445.000000,
   3450.000000,
   3455.000000,
   3460.000000,
   3465.000000,
   3470.000000,
   3475.000000,
   3480.000000,
   3485.000000,
   3490.000000,
   3495.000000,
   3500.000000,
   3505.000000,
   3510.000000,
   3515.000000,
   3520.000000,
   3525.000000,
   3530.000000,
   3535.000000,
   3540.000000,
   3545.000000,
   3550.000000,
   3555.000000,
   3560.000000,
   3565.000000,
   3570.000000,
   3575.000000,
   3580.000000,
   3585.000000,
   3590.000000,
   3595.000000,
   3600.000000,
   3605.000000,
   3610.000000,
   3615.000000,
   3620.000000,
   3625.000000,
   3630.000000,
   3635.000000,
   3640.000000,
   3645.000000,
   3650.000000,
   3655.000000,
   3660.000000,
   3665.000000,
   3670.000000,
   3675.000000,
   3680.000000,
   3685.000000,
   3690.000000,
   3695.000000,
   3700.000000,
   3705.000000,
   3710.000000,
   3715.000000,
   3720.000000,
   3725.000000,
   3730.000000,
   3735.000000,
   3740.000000,
   3745.000000,
   3750.000000,
   3755.000000,
   3760.000000,
   3765.000000,
   3770.000000,
   3775.000000,
   3780.000000,
   3785.000000,
   3790.000000,
   3795.000000,
   3800.000000,
   3805.000000,
   3810.000000,
   3815.000000,
   3820.000000,
   3825.000000,
   3830.000000,
   3835.000000,
   3840.000000,
   3845.000000,
   3850.000000,
   3855.000000,
   3860.000000,
   3865.000000,
   3870.000000,
   3875.000000,
   3880.000000,
   3885.000000,
   3890.000000,
   3895.000000,
   3900.000000,
   3905.000000,
   3910.000000,
   3915.000000,
   3920.000000,
   3925.000000,
   3930.000000,
   3935.000000,
   3940.000000,
   3945.000000,
   3950.000000,
   3955.000000,
   3960.000000,
   3965.000000,
   3970.000000,
   3975.000000,
   3980.000000,
   3985.000000,
   3990.000000,
   3995.000000,
   4000.000000,
   4005.000000,
   4010.000000,
   4015.000000,
   4020.000000,
   4025.000000,
   4030.000000,
   4035.000000,
   4040.000000,
   4045.000000,
   4050.000000,
   4055.000000,
   4060.000000,
   4065.000000,
   4070.000000,
   4075.000000,
   4080.000000,
   4085.000000,
   4090.000000,
   4095.000000,
   4100.000000,
   4105.000000,
   4110.000000,
   4115.000000,
   4120.000000,
   4125.000000,
   4130.000000,
   4135.000000,
   4140.000000,
   4145.000000,
   4150.000000,
   4155.000000,
   4160.000000,
   4165.000000,
   4170.000000,
   4175.000000,
   4180.000000,
   4185.000000,
   4190.000000,
   4195.000000,
   4200.000000,
   4205.000000,
   4210.000000,
   4215.000000,
   4220.000000,
   4225.000000,
   4230.000000,
   4235.000000,
   4240.000000,
   4245.000000,
   4250.000000,
   4255.000000,
   4260.000000,
   4265.000000,
   4270.000000,
   4275.000000,
   4280.000000,
   4285.000000,
   4290.000000,
   4295.000000,
   4300.000000,
   4305.000000,
   4310.000000,
   4315.000000,
   4320.000000,
   4325.000000,
   4330.000000,
   4335.000000,
   4340.000000,
   4345.000000,
   4350.000000,
   4355.000000,
   4360.000000,
   4365.000000,
   4370.000000,
   4375.000000,
   4380.000000,
   4385.000000,
   4390.000000,
   4395.000000,
   4400.000000,
   4405.000000,
   4410.000000,
   4415.000000,
   4420.000000,
   4425.000000,
   4430.000000,
   4435.000000,
   4440.000000,
   4445.000000,
   4450.000000,
   4455.000000,
   4460.000000,
   4465.000000,
   4470.000000,
   4475.000000,
   4480.000000,
   4485.000000,
   4490.000000,
   4495.000000,
   4500.000000,
   4505.000000,
   4510.000000,
   4515.000000,
   4520.000000,
   4525.000000,
   4530.000000,
   4535.000000,
   4540.000000,
   4545.000000,
   4550.000000,
   4555.000000,
   4560.000000,
   4565.000000,
   4570.000000,
   4575.000000,
   4580.000000,
   4585.000000,
   4590.000000,
   4595.000000,
   4600.000000,
   4605.000000,
   4610.000000,
   4615.000000,
   4620.000000,
   4625.000000,
   4630.000000,
   4635.000000,
   4640.000000,
   4645.000000,
   4650.000000,
   4655.000000,
   4660.000000,
   4665.000000,
   4670.000000,
   4675.000000,
   4680.000000,
   4685.000000,
   4690.000000,
   4695.000000,
   4700.000000,
   4705.000000,
   4710.000000,
   4715.000000,
   4720.000000,
   4725.000000,
   4730.000000,
   4735.000000,
   4740.000000,
   4745.000000,
   4750.000000,
   4755.000000,
   4760.000000,
   4765.000000,
   4770.000000,
   4775.000000,
   4780.000000,
   4785.000000,
   4790.000000,
   4795.000000,
   4800.000000,
   4805.000000,
   4810.000000,
   4815.000000,
   4820.000000,
   4825.000000,
   4830.000000,
   4835.000000,
   4840.000000,
   4845.000000,
   4850.000000,
   4855.000000,
   4860.000000,
   4865.000000,
   4870.000000,
   4875.000000,
   4880.000000,
   4885.000000,
   4890.000000,
   4895.000000,
   4900.000000,
   4905.000000,
   4910.000000,
   4915.000000,
   4920.000000,
   4925.000000,
   4930.000000,
   4935.000000,
   4940.000000,
   4945.000000,
   4950.000000,
   4955.000000,
   4960.000000,
   4965.000000,
   4970.000000,
   4975.000000,
   4980.000000,
   4985.000000,
   4990.000000,
   4995.000000,
   5000.000000,
   5005.000000,
   5010.000000,
   5015.000000,
   5020.000000,
   5025.000000,
   5030.000000,
   5035.000000,
   5040.000000,
   5045.000000,
   5050.000000,
   5055.000000,
   5060.000000,
   5065.000000,
   5070.000000,
   5075.000000,
   5080.000000,
   5085.000000,
   5090.000000,
   5095.000000,
   5100.000000,
   5105.000000,
   5110.000000,
   5115.000000,
   5120.000000,
   5125.000000,
   5130.000000,
   5135.000000,
   5140.000000,
   5145.000000,
   5150.000000,
   5155.000000,
   5160.000000,
   5165.000000,
   5170.000000,
   5175.000000,
   5180.000000,
   5185.000000,
   5190.000000,
   5195.000000,
   5200.000000,
   5205.000000,
   5210.000000,
   5215.000000,
   5220.000000,
   5225.000000,
   5230.000000,
   5235.000000,
   5240.000000,
   5245.000000,
   5250.000000,
   5255.000000,
   5260.000000,
   5265.000000,
   5270.000000,
   5275.000000,
   5280.000000,
   5285.000000,
   5290.000000,
   5295.000000,
   5300.000000,
   5305.000000,
   5310.000000,
   5315.000000,
   5320.000000,
   5325.000000,
   5330.000000,
   5335.000000,
   5340.000000,
   5345.000000,
   5350.000000,
   5355.000000,
   5360.000000,
   5365.000000,
   5370.000000,
   5375.000000,
   5380.000000,
   5385.000000,
   5390.000000,
   5395.000000,
   5400.000000,
   5405.000000,
   5410.000000,
   5415.000000,
   5420.000000,
   5425.000000,
   5430.000000,
   5435.000000,
   5440.000000,
   5445.000000,
   5450.000000,
   5455.000000,
   5460.000000,
   5465.000000,
   5470.000000,
   5475.000000,
   5480.000000,
   5485.000000,
   5490.000000,
   5495.000000,
   5500.000000,
   5505.000000,
   5510.000000,
   5515.000000,
   5520.000000,
   5525.000000,
   5530.000000,
   5535.000000,
   5540.000000,
   5545.000000,
   5550.000000,
   5555.000000,
   5560.000000,
   5565.000000,
   5570.000000,
   5575.000000,
   5580.000000,
   5585.000000,
   5590.000000,
   5595.000000,
   5600.000000,
   5605.000000,
   5610.000000,
   5615.000000,
   5620.000000,
   5625.000000,
   5630.000000,
   5635.000000,
   5640.000000,
   5645.000000,
   5650.000000,
   5655.000000,
   5660.000000,
   5665.000000,
   5670.000000,
   5675.000000,
   5680.000000,
   5685.000000,
   5690.000000,
   5695.000000,
   5700.000000,
   5705.000000,
   5710.000000,
   5715.000000,
   5720.000000,
   5725.000000,
   5730.000000,
   5735.000000,
   5740.000000,
   5745.000000,
   5750.000000,
   5755.000000,
   5760.000000,
   5765.000000,
   5770.000000,
   5775.000000,
   5780.000000,
   5785.000000,
   5790.000000,
   5795.000000,
   5800.000000,
   5805.000000,
   5810.000000,
   5815.000000,
   5820.000000,
   5825.000000,
   5830.000000,
   5835.000000,
   5840.000000,
   5845.000000,
   5850.000000,
   5855.000000,
   5860.000000,
   5865.000000,
   5870.000000,
   5875.000000,
   5880.000000,
   5885.000000,
   5890.000000,
   5895.000000,
   5900.000000,
   5905.000000,
   5910.000000,
   5915.000000,
   5920.000000,
   5925.000000,
   5930.000000,
   5935.000000,
   5940.000000,
   5945.000000,
   5950.000000,
   5955.000000,
   5960.000000,
   5965.000000,
   5970.000000,
   5975.000000,
   5980.000000,
   5985.000000,
   5990.000000,
   5995.000000,
   6000.000000,
   6005.000000,
   6010.000000,
   6015.000000,
   6020.000000,
   6025.000000,
   6030.000000,
   6035.000000,
   6040.000000,
   6045.000000,
   6050.000000,
   6055.000000,
   6060.000000,
   6065.000000,
   6070.000000,
   6075.000000,
   6080.000000,
   6085.000000,
   6090.000000,
   6095.000000,
   6100.000000,
   6105.000000,
   6110.000000,
   6115.000000,
   6120.000000,
   6125.000000,
   6130.000000,
   6135.000000,
   6140.000000,
   6145.000000,
   6150.000000,
   6155.000000,
   6160.000000,
   6165.000000,
   6170.000000,
   6175.000000,
   6180.000000,
   6185.000000,
   6190.000000,
   6195.000000,
   6200.000000,
   6205.000000,
   6210.000000,
   6215.000000,
   6220.000000,
   6225.000000,
   6230.000000,
   6235.000000,
   6240.000000,
   6245.000000,
   6250.000000,
   6255.000000,
   6260.000000,
   6265.000000,
   6270.000000,
   6275.000000,
   6280.000000,
   6285.000000,
   6290.000000,
   6295.000000,
   6300.000000,
   6305.000000,
   6310.000000,
   6315.000000,
   6320.000000,
   6325.000000,
   6330.000000,
   6335.000000,
   6340.000000,
   6345.000000,
   6350.000000,
   6355.000000,
   6360.000000,
   6365.000000,
   6370.000000,
   6375.000000,
   6380.000000,
   6385.000000,
   6390.000000,
   6395.000000,
   6400.000000,
   6405.000000,
   6410.000000,
   6415.000000,
   6420.000000,
   6425.000000,
   6430.000000,
   6435.000000,
   6440.000000,
   6445.000000,
   6450.000000,
   6455.000000,
   6460.000000,
   6465.000000,
   6470.000000,
   6475.000000,
   6480.000000,
   6485.000000,
   6490.000000,
   6495.000000,
   6500.000000,
   6505.000000,
   6510.000000,
   6515.000000,
   6520.000000,
   6525.000000,
   6530.000000,
   6535.000000,
   6540.000000,
   6545.000000,
   6550.000000,
   6555.000000,
   6560.000000,
   6565.000000,
   6570.000000,
   6575.000000,
   6580.000000,
   6585.000000,
   6590.000000,
   6595.000000,
   6600.000000,
   6605.000000,
   6610.000000,
   6615.000000,
   6620.000000,
   6625.000000,
   6630.000000,
   6635.000000,
   6640.000000,
   6645.000000,
   6650.000000,
   6655.000000,
   6660.000000,
   6665.000000,
   6670.000000,
   6675.000000,
   6680.000000,
   6685.000000,
   6690.000000,
   6695.000000,
   6700.000000,
   6705.000000,
   6710.000000,
   6715.000000,
   6720.000000,
   6725.000000,
   6730.000000,
   6735.000000,
   6740.000000,
   6745.000000,
   6750.000000,
   6755.000000,
   6760.000000,
   6765.000000,
   6770.000000,
   6775.000000,
   6780.000000,
   6785.000000,
   6790.000000,
   6795.000000,
   6800.000000,
   6805.000000,
   6810.000000,
   6815.000000,
   6820.000000,
   6825.000000,
   6830.000000,
   6835.000000,
   6840.000000,
   6845.000000,
   6850.000000,
   6855.000000,
   6860.000000,
   6865.000000,
   6870.000000,
   6875.000000,
   6880.000000,
   6885.000000,
   6890.000000,
   6895.000000,
   6900.000000,
   6905.000000,
   6910.000000,
   6915.000000,
   6920.000000,
   6925.000000,
   6930.000000,
   6935.000000,
   6940.000000,
   6945.000000,
   6950.000000,
   6955.000000,
   6960.000000,
   6965.000000,
   6970.000000,
   6975.000000,
   6980.000000,
   6985.000000,
   6990.000000,
   6995.000000,
   7000.000000,
   7005.000000,
   7010.000000,
   7015.000000,
   7020.000000,
   7025.000000,
   7030.000000,
   7035.000000,
   7040.000000,
   7045.000000,
   7050.000000,
   7055.000000,
   7060.000000,
   7065.000000,
   7070.000000,
   7075.000000,
   7080.000000,
   7085.000000,
   7090.000000,
   7095.000000,
   7100.000000,
   7105.000000,
   7110.000000,
   7115.000000,
   7120.000000,
   7125.000000,
   7130.000000,
   7135.000000,
   7140.000000,
   7145.000000,
   7150.000000,
   7155.000000,
   7160.000000,
   7165.000000,
   7170.000000,
   7175.000000,
   7180.000000,
   7185.000000,
   7190.000000,
   7195.000000,
   7200.000000,
   7205.000000,
   7210.000000,
   7215.000000,
   7220.000000,
   7225.000000,
   7230.000000,
   7235.000000,
   7240.000000,
   7245.000000,
   7250.000000,
   7255.000000,
   7260.000000,
   7265.000000,
   7270.000000,
   7275.000000,
   7280.000000,
   7285.000000,
   7290.000000,
   7295.000000,
   7300.000000,
   7305.000000,
   7310.000000,
   7315.000000,
   7320.000000,
   7325.000000,
   7330.000000,
   7335.000000,
   7340.000000,
   7345.000000,
   7350.000000,
   7355.000000,
   7360.000000,
   7365.000000,
   7370.000000,
   7375.000000,
   7380.000000,
   7385.000000,
   7390.000000,
   7395.000000,
   7400.000000,
   7405.000000,
   7410.000000,
   7415.000000,
   7420.000000,
   7425.000000,
   7430.000000,
   7435.000000,
   7440.000000,
   7445.000000,
   7450.000000,
   7455.000000,
   7460.000000,
   7465.000000,
   7470.000000,
   7475.000000,
   7480.000000,
   7485.000000,
   7490.000000,
   7495.000000,
   7500.000000,
   7505.000000,
   7510.000000,
   7515.000000,
   7520.000000,
   7525.000000,
   7530.000000,
   7535.000000,
   7540.000000,
   7545.000000,
   7550.000000,
   7555.000000,
   7560.000000,
   7565.000000,
   7570.000000,
   7575.000000,
   7580.000000,
   7585.000000,
   7590.000000,
   7595.000000,
   7600.000000,
   7605.000000,
   7610.000000,
   7615.000000,
   7620.000000,
   7625.000000,
   7630.000000,
   7635.000000,
   7640.000000,
   7645.000000,
   7650.000000,
   7655.000000,
   7660.000000,
   7665.000000,
   7670.000000,
   7675.000000,
   7680.000000,
   7685.000000,
   7690.000000,
   7695.000000,
   7700.000000,
   7705.000000,
   7710.000000,
   7715.000000,
   7720.000000,
   7725.000000,
   7730.000000,
   7735.000000,
   7740.000000,
   7745.000000,
   7750.000000,
   7755.000000,
   7760.000000,
   7765.000000,
   7770.000000,
   7775.000000,
   7780.000000,
   7785.000000,
   7790.000000,
   7795.000000,
   7800.000000,
   7805.000000,
   7810.000000,
   7815.000000,
   7820.000000,
   7825.000000,
   7830.000000,
   7835.000000,
   7840.000000,
   7845.000000,
   7850.000000,
   7855.000000,
   7860.000000,
   7865.000000,
   7870.000000,
   7875.000000,
   7880.000000,
   7885.000000,
   7890.000000,
   7895.000000,
   7900.000000,
   7905.000000,
   7910.000000,
   7915.000000,
   7920.000000,
   7925.000000,
   7930.000000,
   7935.000000,
   7940.000000,
   7945.000000,
   7950.000000,
   7955.000000,
   7960.000000,
   7965.000000,
   7970.000000,
   7975.000000,
   7980.000000,
   7985.000000,
   7990.000000,
   7995.000000,
   8000.000000,
   8005.000000,
   8010.000000,
   8015.000000,
   8020.000000,
   8025.000000,
   8030.000000,
   8035.000000,
   8040.000000,
   8045.000000,
   8050.000000,
   8055.000000,
   8060.000000,
   8065.000000,
   8070.000000,
   8075.000000,
   8080.000000,
   8085.000000,
   8090.000000,
   8095.000000,
   8100.000000,
   8105.000000,
   8110.000000,
   8115.000000,
   8120.000000,
   8125.000000,
   8130.000000,
   8135.000000,
   8140.000000,
   8145.000000,
   8150.000000,
   8155.000000,
   8160.000000,
   8165.000000,
   8170.000000,
   8175.000000,
   8180.000000,
   8185.000000,
   8190.000000,
   8195.000000,
   8200.000000,
   8205.000000,
   8210.000000,
   8215.000000,
   8220.000000,
   8225.000000,
   8230.000000,
   8235.000000,
   8240.000000,
   8245.000000,
   8250.000000,
   8255.000000,
   8260.000000,
   8265.000000,
   8270.000000,
   8275.000000,
   8280.000000,
   8285.000000,
   8290.000000,
   8295.000000,
   8300.000000,
   8305.000000,
   8310.000000,
   8315.000000,
   8320.000000,
   8325.000000,
   8330.000000,
   8335.000000,
   8340.000000,
   8345.000000,
   8350.000000,
   8355.000000,
   8360.000000,
   8365.000000,
   8370.000000,
   8375.000000,
   8380.000000,
   8385.000000,
   8390.000000,
   8395.000000,
   8400.000000,
   8405.000000,
   8410.000000,
   8415.000000,
   8420.000000,
   8425.000000,
   8430.000000,
   8435.000000,
   8440.000000,
   8445.000000,
   8450.000000,
   8455.000000,
   8460.000000,
   8465.000000,
   8470.000000,
   8475.000000,
   8480.000000,
   8485.000000,
   8490.000000,
   8495.000000,
   8500.000000,
   8505.000000,
   8510.000000,
   8515.000000,
   8520.000000,
   8525.000000,
   8530.000000,
   8535.000000,
   8540.000000,
   8545.000000,
   8550.000000,
   8555.000000,
   8560.000000,
   8565.000000,
   8570.000000,
   8575.000000,
   8580.000000,
   8585.000000,
   8590.000000,
   8595.000000,
   8600.000000,
   8605.000000,
   8610.000000,
   8615.000000,
   8620.000000,
   8625.000000,
   8630.000000,
   8635.000000,
   8640.000000,
   8645.000000,
   8650.000000,
   8655.000000,
   8660.000000,
   8665.000000,
   8670.000000,
   8675.000000,
   8680.000000,
   8685.000000,
   8690.000000,
   8695.000000,
   8700.000000,
   8705.000000,
   8710.000000,
   8715.000000,
   8720.000000,
   8725.000000,
   8730.000000,
   8735.000000,
   8740.000000,
   8745.000000,
   8750.000000,
   8755.000000,
   8760.000000,
   8765.000000,
   8770.000000,
   8775.000000,
   8780.000000,
   8785.000000,
   8790.000000,
   8795.000000,
   8800.000000,
   8805.000000,
   8810.000000,
   8815.000000,
   8820.000000,
   8825.000000,
   8830.000000,
   8835.000000,
   8840.000000,
   8845.000000,
   8850.000000,
   8855.000000,
   8860.000000,
   8865.000000,
   8870.000000,
   8875.000000,
   8880.000000,
   8885.000000,
   8890.000000,
   8895.000000,
   8900.000000,
   8905.000000,
   8910.000000,
   8915.000000,
   8920.000000,
   8925.000000,
   8930.000000,
   8935.000000,
   8940.000000,
   8945.000000,
   8950.000000,
   8955.000000,
   8960.000000,
   8965.000000,
   8970.000000,
   8975.000000,
   8980.000000,
   8985.000000,
   8990.000000,
   8995.000000,
   9000.000000,
   9005.000000,
   9010.000000,
   9015.000000,
   9020.000000,
   9025.000000,
   9030.000000,
   9035.000000,
   9040.000000,
   9045.000000,
   9050.000000,
   9055.000000,
   9060.000000,
   9065.000000,
   9070.000000,
   9075.000000,
   9080.000000,
   9085.000000,
   9090.000000,
   9095.000000,
   9100.000000,
   9105.000000,
   9110.000000,
   9115.000000,
   9120.000000,
   9125.000000,
   9130.000000,
   9135.000000,
   9140.000000,
   9145.000000,
   9150.000000,
   9155.000000,
   9160.000000,
   9165.000000,
   9170.000000,
   9175.000000,
   9180.000000,
   9185.000000,
   9190.000000,
   9195.000000,
   9200.000000,
   9205.000000,
   9210.000000,
   9215.000000,
   9220.000000,
   9225.000000,
   9230.000000,
   9235.000000,
   9240.000000,
   9245.000000,
   9250.000000,
   9255.000000,
   9260.000000,
   9265.000000,
   9270.000000,
   9275.000000,
   9280.000000,
   9285.000000,
   9290.000000,
   9295.000000,
   9300.000000,
   9305.000000,
   9310.000000,
   9315.000000,
   9320.000000,
   9325.000000,
   9330.000000,
   9335.000000,
   9340.000000,
   9345.000000,
   9350.000000,
   9355.000000,
   9360.000000,
   9365.000000,
   9370.000000,
   9375.000000,
   9380.000000,
   9385.000000,
   9390.000000,
   9395.000000,
   9400.000000,
   9405.000000,
   9410.000000,
   9415.000000,
   9420.000000,
   9425.000000,
   9430.000000,
   9435.000000,
   9440.000000,
   9445.000000,
   9450.000000,
   9455.000000,
   9460.000000,
   9465.000000,
   9470.000000,
   9475.000000,
   9480.000000,
   9485.000000,
   9490.000000,
   9495.000000,
   9500.000000,
   9505.000000,
   9510.000000,
   9515.000000,
   9520.000000,
   9525.000000,
   9530.000000,
   9535.000000,
   9540.000000,
   9545.000000,
   9550.000000,
   9555.000000,
   9560.000000,
   9565.000000,
   9570.000000,
   9575.000000,
   9580.000000,
   9585.000000,
   9590.000000,
   9595.000000,
   9600.000000,
   9605.000000,
   9610.000000,
   9615.000000,
   9620.000000,
   9625.000000,
   9630.000000,
   9635.000000,
   9640.000000,
   9645.000000,
   9650.000000,
   9655.000000,
   9660.000000,
   9665.000000,
   9670.000000,
   9675.000000,
   9680.000000,
   9685.000000,
   9690.000000,
   9695.000000,
   9700.000000,
   9705.000000,
   9710.000000,
   9715.000000,
   9720.000000,
   9725.000000,
   9730.000000,
   9735.000000,
   9740.000000,
   9745.000000,
   9750.000000,
   9755.000000,
   9760.000000,
   9765.000000,
   9770.000000,
   9775.000000,
   9780.000000,
   9785.000000,
   9790.000000,
   9795.000000,
   9800.000000,
   9805.000000,
   9810.000000,
   9815.000000,
   9820.000000,
   9825.000000,
   9830.000000,
   9835.000000,
   9840.000000,
   9845.000000,
   9850.000000,
   9855.000000,
   9860.000000,
   9865.000000,
   9870.000000,
   9875.000000,
   9880.000000,
   9885.000000,
   9890.000000,
   9895.000000,
   9900.000000,
   9905.000000,
   9910.000000,
   9915.000000,
   9920.000000,
   9925.000000,
   9930.000000,
   9935.000000,
   9940.000000,
   9945.000000,
   9950.000000,
   9955.000000,
   9960.000000,
   9965.000000,
   9970.000000,
   9975.000000,
   9980.000000,
   9985.000000,
   9990.000000,
   9995.000000,
   10000.000000,
   10005.000000,
   10010.000000,
   10015.000000,
   10020.000000,
   10025.000000,
   10030.000000,
   10035.000000,
   10040.000000,
   10045.000000,
   10050.000000,
   10055.000000,
   10060.000000,
   10065.000000,
   10070.000000,
   10075.000000,
   10080.000000,
   10085.000000,
   10090.000000,
   10095.000000,
   10100.000000,
   10105.000000,
   10110.000000,
   10115.000000,
   10120.000000,
   10125.000000,
   10130.000000,
   10135.000000,
   10140.000000,
   10145.000000,
   10150.000000,
   10155.000000,
   10160.000000,
   10165.000000,
   10170.000000,
   10175.000000,
   10180.000000,
   10185.000000,
   10190.000000,
   10195.000000,
   10200.000000,
   10205.000000,
   10210.000000,
   10215.000000,
   10220.000000,
   10225.000000,
   10230.000000,
   10235.000000,
   10240.000000,
   10245.000000,
   10250.000000,
   10255.000000,
   10260.000000,
   10265.000000,
   10270.000000,
   10275.000000,
   10280.000000,
   10285.000000,
   10290.000000,
   10295.000000,
   10300.000000,
   10305.000000,
   10310.000000,
   10315.000000,
   10320.000000,
   10325.000000,
   10330.000000,
   10335.000000,
   10340.000000,
   10345.000000,
   10350.000000,
   10355.000000,
   10360.000000,
   10365.000000,
   10370.000000,
   10375.000000,
   10380.000000,
   10385.000000,
   10390.000000,
   10395.000000,
   10400.000000,
   10405.000000,
   10410.000000,
   10415.000000,
   10420.000000,
   10425.000000,
   10430.000000,
   10435.000000,
   10440.000000,
   10445.000000,
   10450.000000,
   10455.000000,
   10460.000000,
   10465.000000,
   10470.000000,
   10475.000000,
   10480.000000,
   10485.000000,
   10490.000000,
   10495.000000,
   10500.000000,
   10505.000000,
   10510.000000,
   10515.000000,
   10520.000000,
   10525.000000,
   10530.000000,
   10535.000000,
   10540.000000,
   10545.000000,
   10550.000000,
   10555.000000,
   10560.000000,
   10565.000000,
   10570.000000,
   10575.000000,
   10580.000000,
   10585.000000,
   10590.000000,
   10595.000000,
   10600.000000,
   10605.000000,
   10610.000000,
   10615.000000,
   10620.000000
};

static double _g2iv_flux[] = {
   0.000000,
   0.000000,
   0.000000,
   0.000000,
   0.000000,
   0.000000,
   0.000000,
   0.000000,
   0.000000,
   0.000000,
   0.000000,
   0.000000,
   0.000000,
   0.000000,
   0.000000,
   0.000000,
   0.000000,
   0.000000,
   0.000000,
   0.000000,
   0.000000,
   0.000000,
   0.000000,
   0.000000,
   0.000000,
   0.000000,
   0.000000,
   0.000000,
   0.000000,
   0.000000,
   0.000000,
   0.000000,
   0.000000,
   0.000000,
   0.000000,
   0.000000,
   0.000000,
   0.000000,
   0.000000,
   0.000000,
   0.000000,
   0.000000,
   0.000000,
   0.000000,
   0.000000,
   0.000000,
   0.000000,
   0.000000,
   0.000000,
   0.000000,
   0.000000,
   0.000000,
   0.000000,
   0.000000,
   0.000000,
   0.000000,
   0.000000,
   0.000000,
   0.000000,
   0.000000,
   0.000000,
   0.000000,
   0.000000,
   0.000000,
   0.000000,
   0.000000,
   0.000000,
   0.000000,
   0.000000,
   0.000000,
   0.000000,
   0.000000,
   0.000000,
   0.000000,
   0.000000,
   0.000000,
   0.000000,
   0.000000,
   0.000000,
   0.000000,
   0.000000,
   0.000000,
   0.000000,
   0.000000,
   0.000000,
   0.000000,
   0.000000,
   0.000000,
   0.000000,
   0.000000,
   0.000000,
   0.000000,
   0.000000,
   0.000000,
   0.000000,
   0.000000,
   0.000000,
   0.000000,
   0.000000,
   0.000000,
   0.000000,
   0.000000,
   0.000000,
   0.000000,
   0.000000,
   0.000000,
   0.000000,
   0.000000,
   0.000000,
   0.000000,
   0.000000,
   0.000000,
   0.000000,
   0.000000,
   0.000000,
   0.000000,
   0.000000,
   0.000000,
   0.000000,
   0.000000,
   0.000000,
   0.000001,
   0.000001,
   0.000002,
   0.000002,
   0.000003,
   0.000003,
   0.000003,
   0.000002,
   0.000001,
   0.000000,
   0.000000,
   0.000000,
   0.000000,
   0.000000,
   0.000000,
   0.000000,
   0.000000,
   0.000000,
   0.000000,
   0.000000,
   0.000007,
   0.000016,
   0.000025,
   0.000033,
   0.000038,
   0.000041,
   0.000040,
   0.000033,
   0.000020,
   0.000000,
   0.000000,
   0.000000,
   0.000000,
   0.000000,
   0.000000,
   0.000000,
   0.000000,
   0.000000,
   0.000000,
   0.000000,
   0.000106,
   0.000240,
   0.000401,
   0.000585,
   0.000789,
   0.001010,
   0.001247,
   0.001496,
   0.001755,
   0.002020,
   0.002291,
   0.002573,
   0.002873,
   0.003198,
   0.003555,
   0.003950,
   0.004392,
   0.004886,
   0.005440,
   0.006061,
   0.006753,
   0.007511,
   0.008330,
   0.009201,
   0.010119,
   0.011075,
   0.012063,
   0.013077,
   0.014109,
   0.015152,
   0.016199,
   0.017248,
   0.018294,
   0.019335,
   0.020365,
   0.021383,
   0.022384,
   0.023364,
   0.024322,
   0.025253,
   0.026153,
   0.027019,
   0.027848,
   0.028636,
   0.029381,
   0.030078,
   0.030724,
   0.031316,
   0.031850,
   0.032323,
   0.032733,
   0.033084,
   0.033380,
   0.033627,
   0.033829,
   0.033991,
   0.034119,
   0.034217,
   0.034290,
   0.034343,
   0.034380,
   0.034398,
   0.034393,
   0.034359,
   0.034294,
   0.034192,
   0.034049,
   0.033861,
   0.033624,
   0.033333,
   0.032986,
   0.032587,
   0.032143,
   0.031659,
   0.031143,
   0.030599,
   0.030035,
   0.029457,
   0.028871,
   0.028283,
   0.027703,
   0.027155,
   0.026668,
   0.026268,
   0.025984,
   0.025844,
   0.025875,
   0.026105,
   0.026561,
   0.027273,
   0.028250,
   0.029442,
   0.030778,
   0.032189,
   0.033607,
   0.034963,
   0.036187,
   0.037212,
   0.037967,
   0.038384,
   0.038418,
   0.038124,
   0.037579,
   0.036863,
   0.036052,
   0.035226,
   0.034463,
   0.033841,
   0.033438,
   0.033333,
   0.033581,
   0.034143,
   0.034955,
   0.035957,
   0.037084,
   0.038275,
   0.039467,
   0.040597,
   0.041604,
   0.042424,
   0.043027,
   0.043503,
   0.043977,
   0.044572,
   0.045411,
   0.046616,
   0.048313,
   0.050623,
   0.053669,
   0.057576,
   0.062414,
   0.068047,
   0.074288,
   0.080948,
   0.087839,
   0.094775,
   0.101565,
   0.108024,
   0.113962,
   0.119192,
   0.123566,
   0.127097,
   0.129837,
   0.131839,
   0.133156,
   0.133841,
   0.133946,
   0.133525,
   0.132630,
   0.131313,
   0.129625,
   0.127599,
   0.125268,
   0.122662,
   0.119814,
   0.116755,
   0.113515,
   0.110127,
   0.106621,
   0.103030,
   0.099400,
   0.095841,
   0.092476,
   0.089431,
   0.086830,
   0.084797,
   0.083458,
   0.082938,
   0.083359,
   0.084848,
   0.087493,
   0.091236,
   0.095984,
   0.101643,
   0.108120,
   0.115321,
   0.123152,
   0.131521,
   0.140333,
   0.149495,
   0.158911,
   0.168476,
   0.178080,
   0.187618,
   0.196979,
   0.206058,
   0.214744,
   0.222931,
   0.230510,
   0.237374,
   0.243433,
   0.248680,
   0.253124,
   0.256775,
   0.259644,
   0.261742,
   0.263079,
   0.263665,
   0.263510,
   0.262626,
   0.261054,
   0.258962,
   0.256550,
   0.254018,
   0.251564,
   0.249390,
   0.247694,
   0.246677,
   0.246537,
   0.247475,
   0.249623,
   0.252845,
   0.256938,
   0.261700,
   0.266926,
   0.272415,
   0.277963,
   0.283366,
   0.288423,
   0.292929,
   0.296731,
   0.299864,
   0.302415,
   0.304468,
   0.306109,
   0.307423,
   0.308495,
   0.309410,
   0.310254,
   0.311111,
   0.312057,
   0.313121,
   0.314324,
   0.315685,
   0.317224,
   0.318961,
   0.320916,
   0.323108,
   0.325557,
   0.328283,
   0.331292,
   0.351614,
   0.349080,
   0.351142,
   0.359961,
   0.368299,
   0.369619,
   0.369577,
   0.374456,
   0.400113,
   0.402825,
   0.392130,
   0.367205,
   0.344563,
   0.340243,
   0.351045,
   0.369065,
   0.386819,
   0.399458,
   0.412250,
   0.430916,
   0.452894,
   0.471845,
   0.474642,
   0.454775,
   0.439021,
   0.452236,
   0.478319,
   0.495164,
   0.497625,
   0.487225,
   0.475229,
   0.471597,
   0.471322,
   0.467692,
   0.462135,
   0.458732,
   0.464045,
   0.480392,
   0.490647,
   0.478821,
   0.452937,
   0.427470,
   0.418705,
   0.436144,
   0.460345,
   0.471484,
   0.477168,
   0.487444,
   0.494709,
   0.490720,
   0.482320,
   0.478441,
   0.481282,
   0.487838,
   0.481044,
   0.449594,
   0.419301,
   0.416787,
   0.434790,
   0.457832,
   0.471456,
   0.466495,
   0.453929,
   0.446395,
   0.443017,
   0.441327,
   0.446006,
   0.461582,
   0.484831,
   0.508568,
   0.434831,
   0.447855,
   0.436076,
   0.416787,
   0.437021,
   0.465480,
   0.484270,
   0.481130,
   0.457069,
   0.428457,
   0.411861,
   0.384980,
   0.364129,
   0.357683,
   0.316363,
   0.301761,
   0.368320,
   0.456874,
   0.494160,
   0.464806,
   0.418242,
   0.425406,
   0.439378,
   0.490844,
   0.482662,
   0.455667,
   0.485469,
   0.478752,
   0.491311,
   0.554860,
   0.593056,
   0.582209,
   0.565982,
   0.566931,
   0.536487,
   0.525283,
   0.548110,
   0.583885,
   0.590854,
   0.537915,
   0.538631,
   0.589094,
   0.519261,
   0.501756,
   0.490399,
   0.425898,
   0.450257,
   0.450005,
   0.452063,
   0.528561,
   0.510493,
   0.519489,
   0.570800,
   0.625115,
   0.657426,
   0.623828,
   0.532089,
   0.493337,
   0.518496,
   0.575605,
   0.564061,
   0.495990,
   0.410321,
   0.362737,
   0.342686,
   0.333702,
   0.359003,
   0.398403,
   0.386245,
   0.364979,
   0.351959,
   0.367928,
   0.356404,
   0.372901,
   0.394504,
   0.463695,
   0.547444,
   0.616100,
   0.626714,
   0.614912,
   0.630759,
   0.628591,
   0.558538,
   0.446360,
   0.303706,
   0.250415,
   0.358256,
   0.491560,
   0.597115,
   0.616958,
   0.519668,
   0.348731,
   0.309488,
   0.474293,
   0.657854,
   0.749097,
   0.788006,
   0.806175,
   0.830518,
   0.843422,
   0.869165,
   0.896654,
   0.901486,
   0.897405,
   0.880262,
   0.890016,
   0.902057,
   0.852028,
   0.873850,
   0.852210,
   0.823422,
   0.829828,
   0.858635,
   0.847356,
   0.877645,
   0.935455,
   0.957048,
   0.915374,
   0.850194,
   0.863905,
   0.907865,
   0.922989,
   0.909353,
   0.890069,
   0.863632,
   0.866269,
   0.867673,
   0.843532,
   0.836721,
   0.834443,
   0.862221,
   0.868456,
   0.832863,
   0.795353,
   0.803925,
   0.829048,
   0.836020,
   0.813710,
   0.802624,
   0.836526,
   0.872074,
   0.875950,
   0.892835,
   0.841070,
   0.867791,
   0.892966,
   0.900976,
   0.915227,
   0.881885,
   0.870963,
   0.868375,
   0.885695,
   0.844034,
   0.824762,
   0.846846,
   0.823881,
   0.786095,
   0.740413,
   0.645259,
   0.601406,
   0.641571,
   0.821515,
   0.935426,
   0.894245,
   0.949120,
   0.967247,
   0.898295,
   0.939981,
   0.967339,
   0.966431,
   1.007221,
   1.035802,
   1.002597,
   0.962550,
   0.923713,
   0.852094,
   0.897498,
   0.950886,
   0.963010,
   0.943033,
   0.982156,
   1.017374,
   1.028557,
   1.022013,
   1.017313,
   1.018084,
   1.048254,
   1.051601,
   1.051112,
   1.000908,
   0.978074,
   1.015048,
   1.058681,
   1.103235,
   1.091470,
   1.091611,
   1.077237,
   1.078976,
   1.111155,
   1.154918,
   1.144055,
   1.106095,
   1.088988,
   1.037517,
   0.994437,
   1.022778,
   1.056590,
   1.048615,
   1.037317,
   1.073415,
   1.110278,
   1.112803,
   1.123352,
   1.124011,
   1.086912,
   1.069077,
   1.074033,
   1.070672,
   1.068578,
   1.097849,
   1.130826,
   1.132406,
   1.143728,
   1.140570,
   1.141050,
   1.116140,
   1.102741,
   1.073667,
   1.074420,
   1.093654,
   1.112310,
   1.061964,
   1.043853,
   1.088275,
   1.085995,
   1.084824,
   1.091682,
   1.087273,
   1.058837,
   1.039273,
   1.049714,
   1.085950,
   1.122893,
   1.109494,
   1.061566,
   1.068972,
   1.094932,
   1.127589,
   1.131658,
   1.109033,
   1.092540,
   1.063751,
   1.093634,
   1.138800,
   1.138067,
   1.103654,
   1.089362,
   1.123279,
   1.122431,
   1.106051,
   1.104835,
   1.133639,
   1.133049,
   1.108727,
   1.106529,
   1.109214,
   1.087589,
   1.091018,
   1.092208,
   1.027641,
   0.932601,
   0.965318,
   1.009400,
   1.034451,
   1.070071,
   1.048268,
   1.034976,
   1.104554,
   1.129367,
   1.113836,
   1.072591,
   1.062414,
   1.011147,
   1.038896,
   1.100228,
   1.061838,
   1.063074,
   1.115617,
   1.123957,
   1.093334,
   1.075668,
   1.092804,
   1.083189,
   1.090877,
   1.032451,
   1.012687,
   1.058454,
   1.062466,
   1.050162,
   1.014226,
   0.999522,
   0.973319,
   0.988799,
   1.012983,
   1.047999,
   1.049146,
   0.991786,
   1.025814,
   1.048881,
   1.076520,
   1.101274,
   1.063418,
   1.049733,
   1.040649,
   1.015027,
   1.034383,
   1.078843,
   1.063553,
   1.030253,
   1.035046,
   1.036363,
   1.073432,
   1.072243,
   1.012927,
   1.007082,
   1.027516,
   0.999725,
   0.991250,
   1.000800,
   1.014970,
   1.023294,
   0.924466,
   0.852594,
   0.932666,
   0.973256,
   0.932145,
   0.965166,
   0.984440,
   1.005342,
   0.991132,
   0.996392,
   1.020485,
   1.018501,
   0.972356,
   0.973274,
   1.012012,
   1.047174,
   1.040680,
   1.005497,
   1.013067,
   0.999898,
   0.913463,
   0.902614,
   0.969766,
   1.015188,
   1.035081,
   1.067453,
   1.036787,
   1.018905,
   1.057629,
   1.070046,
   1.053542,
   1.036188,
   0.989650,
   0.972612,
   1.017524,
   1.014417,
   1.015926,
   1.038176,
   1.069661,
   1.068947,
   1.033415,
   1.009341,
   1.036342,
   1.052319,
   1.043251,
   1.022544,
   0.991242,
   0.985602,
   0.970232,
   0.980523,
   1.023416,
   1.031721,
   1.027740,
   1.003620,
   1.001669,
   1.041634,
   1.032060,
   1.028701,
   1.028702,
   1.034297,
   1.021588,
   1.011166,
   0.983653,
   0.977960,
   1.004770,
   1.012525,
   1.020826,
   1.022243,
   1.009824,
   0.995047,
   0.994421,
   1.022528,
   1.012713,
   1.002039,
   1.010962,
   1.016437,
   1.020274,
   1.033571,
   1.025638,
   1.007210,
   1.001505,
   0.995016,
   1.001816,
   1.003834,
   0.977832,
   0.950582,
   0.970993,
   0.970584,
   0.989473,
   1.020638,
   0.986431,
   0.975608,
   0.983660,
   0.994541,
   0.998091,
   0.987852,
   0.985084,
   0.990042,
   0.968740,
   0.949487,
   0.959211,
   0.981221,
   1.006894,
   0.992698,
   0.969262,
   0.976381,
   0.987462,
   0.977426,
   0.949809,
   0.934011,
   0.957231,
   0.988267,
   1.002906,
   0.995468,
   0.999233,
   1.000536,
   0.986812,
   0.976564,
   0.971632,
   0.971849,
   0.983487,
   0.998941,
   0.986332,
   0.958075,
   0.943790,
   0.962301,
   0.976873,
   0.982198,
   0.978784,
   0.980526,
   0.981191,
   0.998272,
   1.002692,
   1.003287,
   0.999126,
   0.995389,
   0.990045,
   0.977878,
   0.951431,
   0.952113,
   0.969245,
   0.986032,
   0.985816,
   0.968079,
   0.931061,
   0.868023,
   0.869307,
   0.929590,
   0.964379,
   0.964972,
   0.956838,
   0.956175,
   0.959290,
   0.948029,
   0.952900,
   0.962062,
   0.957030,
   0.942288,
   0.945001,
   0.961193,
   0.955860,
   0.955061,
   0.945376,
   0.940584,
   0.929985,
   0.941315,
   0.949316,
   0.945147,
   0.924420,
   0.923051,
   0.918470,
   0.913332,
   0.914849,
   0.929442,
   0.941476,
   0.936486,
   0.943231,
   0.939683,
   0.935517,
   0.932399,
   0.930548,
   0.938420,
   0.928470,
   0.916942,
   0.912562,
   0.913238,
   0.912579,
   0.907249,
   0.905555,
   0.915837,
   0.919168,
   0.900366,
   0.897144,
   0.899296,
   0.881991,
   0.880305,
   0.891553,
   0.897740,
   0.893265,
   0.867772,
   0.856636,
   0.867991,
   0.886155,
   0.900576,
   0.899168,
   0.885581,
   0.896403,
   0.904948,
   0.910337,
   0.902544,
   0.883051,
   0.880107,
   0.888484,
   0.878160,
   0.876343,
   0.874386,
   0.863289,
   0.862903,
   0.852155,
   0.855212,
   0.869068,
   0.881407,
   0.880824,
   0.859842,
   0.872111,
   0.883626,
   0.871099,
   0.856368,
   0.864802,
   0.870430,
   0.848960,
   0.845975,
   0.869171,
   0.875106,
   0.866742,
   0.864243,
   0.868220,
   0.878797,
   0.872111,
   0.855766,
   0.857939,
   0.874177,
   0.880743,
   0.870133,
   0.871935,
   0.873891,
   0.860908,
   0.855009,
   0.854750,
   0.852314,
   0.850492,
   0.848291,
   0.855041,
   0.853760,
   0.855339,
   0.856391,
   0.863410,
   0.848058,
   0.844882,
   0.848820,
   0.845346,
   0.850598,
   0.845856,
   0.847749,
   0.844608,
   0.831575,
   0.799619,
   0.819351,
   0.854583,
   0.859939,
   0.850447,
   0.848826,
   0.855052,
   0.851495,
   0.850791,
   0.854438,
   0.849898,
   0.833730,
   0.809837,
   0.731035,
   0.710898,
   0.790573,
   0.821848,
   0.833872,
   0.835576,
   0.830569,
   0.825276,
   0.835728,
   0.839398,
   0.833017,
   0.840810,
   0.839554,
   0.833934,
   0.823159,
   0.813731,
   0.818385,
   0.819980,
   0.828216,
   0.832664,
   0.822379,
   0.813644,
   0.819911,
   0.817232,
   0.811883,
   0.821122,
   0.827926,
   0.819268,
   0.812992,
   0.810381,
   0.807181,
   0.793869,
   0.797373,
   0.809095,
   0.810963,
   0.803800,
   0.801213,
   0.797495,
   0.796225,
   0.797949,
   0.806858,
   0.806360,
   0.797557,
   0.800682,
   0.802919,
   0.797609,
   0.801710,
   0.805154,
   0.792209,
   0.786072,
   0.790354,
   0.794027,
   0.792974,
   0.791587,
   0.791757,
   0.789862,
   0.788742,
   0.787798,
   0.786712,
   0.785631,
   0.784665,
   0.783493,
   0.782187,
   0.781133,
   0.780184,
   0.779224,
   0.778243,
   0.777313,
   0.776397,
   0.775476,
   0.774530,
   0.773759,
   0.773231,
   0.772505,
   0.771673,
   0.770823,
   0.770038,
   0.769460,
   0.768811,
   0.768241,
   0.767686,
   0.767074,
   0.767065,
   0.760801,
   0.750036,
   0.761085,
   0.764300,
   0.765502,
   0.759458,
   0.746759,
   0.751718,
   0.745940,
   0.742981,
   0.744301,
   0.752476,
   0.753220,
   0.755045,
   0.765964,
   0.764497,
   0.756441,
   0.757802,
   0.755490,
   0.752588,
   0.760852,
   0.761160,
   0.747533,
   0.742615,
   0.747596,
   0.755044,
   0.757528,
   0.753192,
   0.747333,
   0.746677,
   0.745653,
   0.744728,
   0.746965,
   0.749745,
   0.745221,
   0.740609,
   0.746459,
   0.744631,
   0.738166,
   0.738016,
   0.736738,
   0.729046,
   0.717421,
   0.717039,
   0.720278,
   0.724015,
   0.723080,
   0.726599,
   0.732219,
   0.732697,
   0.729826,
   0.731503,
   0.727417,
   0.729810,
   0.727172,
   0.727259,
   0.727240,
   0.725406,
   0.721093,
   0.722981,
   0.718958,
   0.716715,
   0.713874,
   0.706806,
   0.713686,
   0.718381,
   0.715103,
   0.712011,
   0.713831,
   0.714121,
   0.716610,
   0.712670,
   0.717724,
   0.724144,
   0.720469,
   0.713119,
   0.708521,
   0.709593,
   0.711272,
   0.713664,
   0.719832,
   0.716889,
   0.700929,
   0.691991,
   0.704158,
   0.709041,
   0.707506,
   0.697653,
   0.690150,
   0.694341,
   0.697489,
   0.711571,
   0.714872,
   0.711619,
   0.700318,
   0.702430,
   0.711456,
   0.705226,
   0.701708,
   0.711642,
   0.706297,
   0.704891,
   0.702554,
   0.699514,
   0.687577,
   0.693715,
   0.697219,
   0.687112,
   0.691047,
   0.697892,
   0.690112,
   0.688041,
   0.693151,
   0.697365,
   0.694046,
   0.690734,
   0.690106,
   0.689141,
   0.688345,
   0.687607,
   0.686703,
   0.685967,
   0.685341,
   0.684592,
   0.683787,
   0.683134,
   0.682565,
   0.681934,
   0.681259,
   0.680587,
   0.679912,
   0.679237,
   0.678563,
   0.677891,
   0.677224,
   0.676562,
   0.675908,
   0.675261,
   0.674624,
   0.673965,
   0.673234,
   0.672537,
   0.672046,
   0.671704,
   0.671106,
   0.670496,
   0.669750,
   0.669082,
   0.668525,
   0.668005,
   0.667361,
   0.667792,
   0.673134,
   0.671069,
   0.659728,
   0.654131,
   0.666550,
   0.668216,
   0.672059,
   0.668152,
   0.662729,
   0.661344,
   0.662716,
   0.663943,
   0.662776,
   0.659800,
   0.663280,
   0.659174,
   0.662550,
   0.668314,
   0.667920,
   0.658957,
   0.647278,
   0.655967,
   0.662169,
   0.660880,
   0.658593,
   0.660617,
   0.658958,
   0.657848,
   0.653719,
   0.649885,
   0.652774,
   0.651651,
   0.646399,
   0.644980,
   0.644859,
   0.642229,
   0.635095,
   0.631262,
   0.634222,
   0.628598,
   0.623449,
   0.622091,
   0.619599,
   0.624566,
   0.634066,
   0.636870,
   0.634847,
   0.635476,
   0.636589,
   0.636085,
   0.635189,
   0.633929,
   0.629604,
   0.617378,
   0.622373,
   0.624777,
   0.627609,
   0.625276,
   0.621955,
   0.618942,
   0.626066,
   0.625208,
   0.615914,
   0.610487,
   0.618365,
   0.625058,
   0.623599,
   0.619368,
   0.614553,
   0.616608,
   0.612708,
   0.611142,
   0.605387,
   0.604343,
   0.609856,
   0.609500,
   0.606868,
   0.607788,
   0.609381,
   0.607137,
   0.604765,
   0.604858,
   0.603327,
   0.600289,
   0.599170,
   0.598039,
   0.592423,
   0.595894,
   0.594837,
   0.592474,
   0.590293,
   0.591329,
   0.587616,
   0.588158,
   0.596418,
   0.596074,
   0.594001,
   0.587957,
   0.583873,
   0.578292,
   0.585385,
   0.591105,
   0.593254,
   0.594049,
   0.591206,
   0.592147,
   0.591022,
   0.588610,
   0.583042,
   0.583661,
   0.584645,
   0.581904,
   0.581589,
   0.583877,
   0.578738,
   0.576416,
   0.578014,
   0.576766,
   0.575349,
   0.571774,
   0.572640,
   0.571632,
   0.573405,
   0.575425,
   0.577843,
   0.575497,
   0.574427,
   0.574616,
   0.577535,
   0.575358,
   0.572561,
   0.571761,
   0.573650,
   0.574943,
   0.571289,
   0.571407,
   0.569632,
   0.573610,
   0.571619,
   0.570809,
   0.565091,
   0.560790,
   0.563316,
   0.569915,
   0.572945,
   0.572190,
   0.570217,
   0.563842,
   0.568175,
   0.571138,
   0.571307,
   0.570096,
   0.539750,
   0.498825,
   0.535182,
   0.562140,
   0.551498,
   0.555071,
   0.556356,
   0.553767,
   0.532734,
   0.459927,
   0.431913,
   0.503663,
   0.545104,
   0.552498,
   0.555669,
   0.557152,
   0.557293,
   0.557430,
   0.554616,
   0.555353,
   0.553239,
   0.550877,
   0.555467,
   0.552576,
   0.549449,
   0.552163,
   0.552302,
   0.556913,
   0.556313,
   0.553533,
   0.551559,
   0.543824,
   0.529805,
   0.479582,
   0.445349,
   0.506101,
   0.531030,
   0.539380,
   0.543839,
   0.536331,
   0.543737,
   0.548428,
   0.551277,
   0.546806,
   0.543803,
   0.552125,
   0.548941,
   0.543113,
   0.542629,
   0.536425,
   0.539420,
   0.535012,
   0.531289,
   0.539171,
   0.540588,
   0.539053,
   0.536572,
   0.538035,
   0.538970,
   0.531576,
   0.526292,
   0.533192,
   0.518664,
   0.508656,
   0.529381,
   0.531095,
   0.526716,
   0.529632,
   0.528069,
   0.520241,
   0.526971,
   0.525117,
   0.527431,
   0.517592,
   0.508869,
   0.514197,
   0.522330,
   0.519624,
   0.526020,
   0.524802,
   0.521937,
   0.522572,
   0.526790,
   0.524357,
   0.520312,
   0.522426,
   0.513812,
   0.511714,
   0.514690,
   0.521195,
   0.512193,
   0.508507,
   0.513237,
   0.516266,
   0.505505,
   0.501490,
   0.506758,
   0.505133,
   0.490831,
   0.479494,
   0.497173,
   0.491310,
   0.485828,
   0.478416,
   0.469520,
   0.480919,
   0.488754,
   0.505465,
   0.513609,
   0.520582,
   0.524057,
   0.519547,
   0.508432,
   0.504475,
   0.493968,
   0.492305,
   0.484514,
   0.481574,
   0.480045,
   0.471613,
   0.477939,
   0.478878,
   0.487696,
   0.487391,
   0.488602,
   0.487015,
   0.488098,
   0.487309,
   0.479309,
   0.493646,
   0.482441,
   0.476557,
   0.477746,
   0.481679,
   0.484697,
   0.479035,
   0.471110,
   0.479566,
   0.487554,
   0.488342,
   0.485449,
   0.490904,
   0.491369,
   0.480842,
   0.475456,
   0.480215,
   0.473048,
   0.470573,
   0.474324,
   0.471223,
   0.471803,
   0.469939,
   0.472987,
   0.474223,
   0.480718,
   0.489060,
   0.493849,
   0.487914,
   0.493617,
   0.487380,
   0.480815,
   0.468947,
   0.468562,
   0.455503,
   0.444574,
   0.442234,
   0.452851,
   0.460968,
   0.453596,
   0.451348,
   0.442367,
   0.458235,
   0.432323,
   0.439629,
   0.443117,
   0.438591,
   0.452223,
   0.461218,
   0.474477,
   0.494898,
   0.507777,
   0.500033,
   0.487016,
   0.468196,
   0.455633,
   0.448060,
   0.435048,
   0.427142,
   0.442385,
   0.416846,
   0.433839,
   0.450638,
   0.432504,
   0.437763,
   0.452182,
   0.461674,
   0.456766,
   0.447618,
   0.454868,
   0.457598,
   0.440565,
   0.436210,
   0.448958,
   0.466583,
   0.455494,
   0.442554,
   0.446144,
   0.452832,
   0.451229,
   0.450272,
   0.432787,
   0.437898,
   0.419242,
   0.445424,
   0.443434,
   0.446965,
   0.455638,
   0.450783,
   0.446748,
   0.434888,
   0.436276,
   0.442240,
   0.443262,
   0.443539,
   0.442841,
   0.436558,
   0.436974,
   0.426147,
   0.433609,
   0.433618,
   0.432326,
   0.435755,
   0.430782,
   0.430767,
   0.436878,
   0.447008,
   0.447371,
   0.442508,
   0.442786,
   0.446642,
   0.442701,
   0.433543,
   0.435585,
   0.443823,
   0.437424,
   0.435082,
   0.438480,
   0.433540,
   0.430677,
   0.426344,
   0.429106,
   0.424004,
   0.421668,
   0.426088,
   0.422467,
   0.429716,
   0.432174,
   0.438222,
   0.426610,
   0.418434,
   0.420449,
   0.427141,
   0.420996,
   0.422644,
   0.421410,
   0.426052,
   0.420485,
   0.423666,
   0.424885,
   0.422614,
   0.418536,
   0.423406,
   0.419620,
   0.418691,
   0.423299,
   0.414979,
   0.416366,
   0.412386,
   0.416736,
   0.409111,
   0.407444,
   0.426269,
   0.424925,
   0.424095,
   0.416893,
   0.411224,
   0.409785,
   0.406357,
   0.406600,
   0.399904,
   0.418834,
   0.416947,
   0.419998,
   0.409339,
   0.418298,
   0.410113,
   0.416941,
   0.395858,
   0.404011,
   0.408272,
   0.414475,
   0.409305,
   0.409189,
   0.408628,
   0.407950,
   0.407481,
   0.407443,
   0.407650,
   0.407813,
   0.407643,
   0.406960,
   0.406035,
   0.405247,
   0.404977,
   0.405445,
   0.406234,
   0.406769,
   0.406473,
   0.404970,
   0.402681,
   0.400227,
   0.398230,
   0.397129,
   0.396632,
   0.396266,
   0.395559,
   0.394223,
   0.392712,
   0.391667,
   0.391728,
   0.393249,
   0.395440,
   0.397224,
   0.397524,
   0.395613,
   0.392163,
   0.388192,
   0.384722,
   0.382557,
   0.381643,
   0.381711,
   0.382493,
   0.383700,
   0.384966,
   0.385908,
   0.386139,
   0.385413,
   0.384029,
   0.382424,
   0.381036,
   0.380224,
   0.380034,
   0.380438,
   0.381404,
   0.382830,
   0.384323,
   0.385417,
   0.385646,
   0.384700,
   0.382891,
   0.380684,
   0.378546,
   0.376854,
   0.375620,
   0.374770,
   0.374227,
   0.373938,
   0.373952,
   0.374338,
   0.375167,
   0.376430,
   0.377799,
   0.378864,
   0.379219,
   0.378607,
   0.377395,
   0.376098,
   0.375236,
   0.375152,
   0.375495,
   0.375739,
   0.375358,
   0.373998,
   0.371989,
   0.369833,
   0.368033,
   0.366949,
   0.366370,
   0.365945,
   0.365322,
   0.364272,
   0.363070,
   0.362111,
   0.361795,
   0.362391,
   0.363662,
   0.365244,
   0.366774,
   0.367921,
   0.368483,
   0.368292,
   0.367180,
   0.365093,
   0.362428,
   0.359694,
   0.357403,
   0.355954,
   0.355307,
   0.355309,
   0.355809,
   0.356617,
   0.357396,
   0.357770,
   0.357362,
   0.355943,
   0.353859,
   0.351603,
   0.349668,
   0.348411,
   0.347662,
   0.347114,
   0.346462,
   0.345468,
   0.344166,
   0.342659,
   0.341050
};

#endif
