#ifndef _G2V_H_
#define _G2V_H_

/* spectrum for g2v star           */
/* number of elements = 1895       */

static double _g2v_lambda[] = {
   1150.000000,
   1155.000000,
   1160.000000,
   1165.000000,
   1170.000000,
   1175.000000,
   1180.000000,
   1185.000000,
   1190.000000,
   1195.000000,
   1200.000000,
   1205.000000,
   1210.000000,
   1215.000000,
   1220.000000,
   1225.000000,
   1230.000000,
   1235.000000,
   1240.000000,
   1245.000000,
   1250.000000,
   1255.000000,
   1260.000000,
   1265.000000,
   1270.000000,
   1275.000000,
   1280.000000,
   1285.000000,
   1290.000000,
   1295.000000,
   1300.000000,
   1305.000000,
   1310.000000,
   1315.000000,
   1320.000000,
   1325.000000,
   1330.000000,
   1335.000000,
   1340.000000,
   1345.000000,
   1350.000000,
   1355.000000,
   1360.000000,
   1365.000000,
   1370.000000,
   1375.000000,
   1380.000000,
   1385.000000,
   1390.000000,
   1395.000000,
   1400.000000,
   1405.000000,
   1410.000000,
   1415.000000,
   1420.000000,
   1425.000000,
   1430.000000,
   1435.000000,
   1440.000000,
   1445.000000,
   1450.000000,
   1455.000000,
   1460.000000,
   1465.000000,
   1470.000000,
   1475.000000,
   1480.000000,
   1485.000000,
   1490.000000,
   1495.000000,
   1500.000000,
   1505.000000,
   1510.000000,
   1515.000000,
   1520.000000,
   1525.000000,
   1530.000000,
   1535.000000,
   1540.000000,
   1545.000000,
   1550.000000,
   1555.000000,
   1560.000000,
   1565.000000,
   1570.000000,
   1575.000000,
   1580.000000,
   1585.000000,
   1590.000000,
   1595.000000,
   1600.000000,
   1605.000000,
   1610.000000,
   1615.000000,
   1620.000000,
   1625.000000,
   1630.000000,
   1635.000000,
   1640.000000,
   1645.000000,
   1650.000000,
   1655.000000,
   1660.000000,
   1665.000000,
   1670.000000,
   1675.000000,
   1680.000000,
   1685.000000,
   1690.000000,
   1695.000000,
   1700.000000,
   1705.000000,
   1710.000000,
   1715.000000,
   1720.000000,
   1725.000000,
   1730.000000,
   1735.000000,
   1740.000000,
   1745.000000,
   1750.000000,
   1755.000000,
   1760.000000,
   1765.000000,
   1770.000000,
   1775.000000,
   1780.000000,
   1785.000000,
   1790.000000,
   1795.000000,
   1800.000000,
   1805.000000,
   1810.000000,
   1815.000000,
   1820.000000,
   1825.000000,
   1830.000000,
   1835.000000,
   1840.000000,
   1845.000000,
   1850.000000,
   1855.000000,
   1860.000000,
   1865.000000,
   1870.000000,
   1875.000000,
   1880.000000,
   1885.000000,
   1890.000000,
   1895.000000,
   1900.000000,
   1905.000000,
   1910.000000,
   1915.000000,
   1920.000000,
   1925.000000,
   1930.000000,
   1935.000000,
   1940.000000,
   1945.000000,
   1950.000000,
   1955.000000,
   1960.000000,
   1965.000000,
   1970.000000,
   1975.000000,
   1980.000000,
   1985.000000,
   1990.000000,
   1995.000000,
   2000.000000,
   2005.000000,
   2010.000000,
   2015.000000,
   2020.000000,
   2025.000000,
   2030.000000,
   2035.000000,
   2040.000000,
   2045.000000,
   2050.000000,
   2055.000000,
   2060.000000,
   2065.000000,
   2070.000000,
   2075.000000,
   2080.000000,
   2085.000000,
   2090.000000,
   2095.000000,
   2100.000000,
   2105.000000,
   2110.000000,
   2115.000000,
   2120.000000,
   2125.000000,
   2130.000000,
   2135.000000,
   2140.000000,
   2145.000000,
   2150.000000,
   2155.000000,
   2160.000000,
   2165.000000,
   2170.000000,
   2175.000000,
   2180.000000,
   2185.000000,
   2190.000000,
   2195.000000,
   2200.000000,
   2205.000000,
   2210.000000,
   2215.000000,
   2220.000000,
   2225.000000,
   2230.000000,
   2235.000000,
   2240.000000,
   2245.000000,
   2250.000000,
   2255.000000,
   2260.000000,
   2265.000000,
   2270.000000,
   2275.000000,
   2280.000000,
   2285.000000,
   2290.000000,
   2295.000000,
   2300.000000,
   2305.000000,
   2310.000000,
   2315.000000,
   2320.000000,
   2325.000000,
   2330.000000,
   2335.000000,
   2340.000000,
   2345.000000,
   2350.000000,
   2355.000000,
   2360.000000,
   2365.000000,
   2370.000000,
   2375.000000,
   2380.000000,
   2385.000000,
   2390.000000,
   2395.000000,
   2400.000000,
   2405.000000,
   2410.000000,
   2415.000000,
   2420.000000,
   2425.000000,
   2430.000000,
   2435.000000,
   2440.000000,
   2445.000000,
   2450.000000,
   2455.000000,
   2460.000000,
   2465.000000,
   2470.000000,
   2475.000000,
   2480.000000,
   2485.000000,
   2490.000000,
   2495.000000,
   2500.000000,
   2505.000000,
   2510.000000,
   2515.000000,
   2520.000000,
   2525.000000,
   2530.000000,
   2535.000000,
   2540.000000,
   2545.000000,
   2550.000000,
   2555.000000,
   2560.000000,
   2565.000000,
   2570.000000,
   2575.000000,
   2580.000000,
   2585.000000,
   2590.000000,
   2595.000000,
   2600.000000,
   2605.000000,
   2610.000000,
   2615.000000,
   2620.000000,
   2625.000000,
   2630.000000,
   2635.000000,
   2640.000000,
   2645.000000,
   2650.000000,
   2655.000000,
   2660.000000,
   2665.000000,
   2670.000000,
   2675.000000,
   2680.000000,
   2685.000000,
   2690.000000,
   2695.000000,
   2700.000000,
   2705.000000,
   2710.000000,
   2715.000000,
   2720.000000,
   2725.000000,
   2730.000000,
   2735.000000,
   2740.000000,
   2745.000000,
   2750.000000,
   2755.000000,
   2760.000000,
   2765.000000,
   2770.000000,
   2775.000000,
   2780.000000,
   2785.000000,
   2790.000000,
   2795.000000,
   2800.000000,
   2805.000000,
   2810.000000,
   2815.000000,
   2820.000000,
   2825.000000,
   2830.000000,
   2835.000000,
   2840.000000,
   2845.000000,
   2850.000000,
   2855.000000,
   2860.000000,
   2865.000000,
   2870.000000,
   2875.000000,
   2880.000000,
   2885.000000,
   2890.000000,
   2895.000000,
   2900.000000,
   2905.000000,
   2910.000000,
   2915.000000,
   2920.000000,
   2925.000000,
   2930.000000,
   2935.000000,
   2940.000000,
   2945.000000,
   2950.000000,
   2955.000000,
   2960.000000,
   2965.000000,
   2970.000000,
   2975.000000,
   2980.000000,
   2985.000000,
   2990.000000,
   2995.000000,
   3000.000000,
   3005.000000,
   3010.000000,
   3015.000000,
   3020.000000,
   3025.000000,
   3030.000000,
   3035.000000,
   3040.000000,
   3045.000000,
   3050.000000,
   3055.000000,
   3060.000000,
   3065.000000,
   3070.000000,
   3075.000000,
   3080.000000,
   3085.000000,
   3090.000000,
   3095.000000,
   3100.000000,
   3105.000000,
   3110.000000,
   3115.000000,
   3120.000000,
   3125.000000,
   3130.000000,
   3135.000000,
   3140.000000,
   3145.000000,
   3150.000000,
   3155.000000,
   3160.000000,
   3165.000000,
   3170.000000,
   3175.000000,
   3180.000000,
   3185.000000,
   3190.000000,
   3195.000000,
   3200.000000,
   3205.000000,
   3210.000000,
   3215.000000,
   3220.000000,
   3225.000000,
   3230.000000,
   3235.000000,
   3240.000000,
   3245.000000,
   3250.000000,
   3255.000000,
   3260.000000,
   3265.000000,
   3270.000000,
   3275.000000,
   3280.000000,
   3285.000000,
   3290.000000,
   3295.000000,
   3300.000000,
   3305.000000,
   3310.000000,
   3315.000000,
   3320.000000,
   3325.000000,
   3330.000000,
   3335.000000,
   3340.000000,
   3345.000000,
   3350.000000,
   3355.000000,
   3360.000000,
   3365.000000,
   3370.000000,
   3375.000000,
   3380.000000,
   3385.000000,
   3390.000000,
   3395.000000,
   3400.000000,
   3405.000000,
   3410.000000,
   3415.000000,
   3420.000000,
   3425.000000,
   3430.000000,
   3435.000000,
   3440.000000,
   3445.000000,
   3450.000000,
   3455.000000,
   3460.000000,
   3465.000000,
   3470.000000,
   3475.000000,
   3480.000000,
   3485.000000,
   3490.000000,
   3495.000000,
   3500.000000,
   3505.000000,
   3510.000000,
   3515.000000,
   3520.000000,
   3525.000000,
   3530.000000,
   3535.000000,
   3540.000000,
   3545.000000,
   3550.000000,
   3555.000000,
   3560.000000,
   3565.000000,
   3570.000000,
   3575.000000,
   3580.000000,
   3585.000000,
   3590.000000,
   3595.000000,
   3600.000000,
   3605.000000,
   3610.000000,
   3615.000000,
   3620.000000,
   3625.000000,
   3630.000000,
   3635.000000,
   3640.000000,
   3645.000000,
   3650.000000,
   3655.000000,
   3660.000000,
   3665.000000,
   3670.000000,
   3675.000000,
   3680.000000,
   3685.000000,
   3690.000000,
   3695.000000,
   3700.000000,
   3705.000000,
   3710.000000,
   3715.000000,
   3720.000000,
   3725.000000,
   3730.000000,
   3735.000000,
   3740.000000,
   3745.000000,
   3750.000000,
   3755.000000,
   3760.000000,
   3765.000000,
   3770.000000,
   3775.000000,
   3780.000000,
   3785.000000,
   3790.000000,
   3795.000000,
   3800.000000,
   3805.000000,
   3810.000000,
   3815.000000,
   3820.000000,
   3825.000000,
   3830.000000,
   3835.000000,
   3840.000000,
   3845.000000,
   3850.000000,
   3855.000000,
   3860.000000,
   3865.000000,
   3870.000000,
   3875.000000,
   3880.000000,
   3885.000000,
   3890.000000,
   3895.000000,
   3900.000000,
   3905.000000,
   3910.000000,
   3915.000000,
   3920.000000,
   3925.000000,
   3930.000000,
   3935.000000,
   3940.000000,
   3945.000000,
   3950.000000,
   3955.000000,
   3960.000000,
   3965.000000,
   3970.000000,
   3975.000000,
   3980.000000,
   3985.000000,
   3990.000000,
   3995.000000,
   4000.000000,
   4005.000000,
   4010.000000,
   4015.000000,
   4020.000000,
   4025.000000,
   4030.000000,
   4035.000000,
   4040.000000,
   4045.000000,
   4050.000000,
   4055.000000,
   4060.000000,
   4065.000000,
   4070.000000,
   4075.000000,
   4080.000000,
   4085.000000,
   4090.000000,
   4095.000000,
   4100.000000,
   4105.000000,
   4110.000000,
   4115.000000,
   4120.000000,
   4125.000000,
   4130.000000,
   4135.000000,
   4140.000000,
   4145.000000,
   4150.000000,
   4155.000000,
   4160.000000,
   4165.000000,
   4170.000000,
   4175.000000,
   4180.000000,
   4185.000000,
   4190.000000,
   4195.000000,
   4200.000000,
   4205.000000,
   4210.000000,
   4215.000000,
   4220.000000,
   4225.000000,
   4230.000000,
   4235.000000,
   4240.000000,
   4245.000000,
   4250.000000,
   4255.000000,
   4260.000000,
   4265.000000,
   4270.000000,
   4275.000000,
   4280.000000,
   4285.000000,
   4290.000000,
   4295.000000,
   4300.000000,
   4305.000000,
   4310.000000,
   4315.000000,
   4320.000000,
   4325.000000,
   4330.000000,
   4335.000000,
   4340.000000,
   4345.000000,
   4350.000000,
   4355.000000,
   4360.000000,
   4365.000000,
   4370.000000,
   4375.000000,
   4380.000000,
   4385.000000,
   4390.000000,
   4395.000000,
   4400.000000,
   4405.000000,
   4410.000000,
   4415.000000,
   4420.000000,
   4425.000000,
   4430.000000,
   4435.000000,
   4440.000000,
   4445.000000,
   4450.000000,
   4455.000000,
   4460.000000,
   4465.000000,
   4470.000000,
   4475.000000,
   4480.000000,
   4485.000000,
   4490.000000,
   4495.000000,
   4500.000000,
   4505.000000,
   4510.000000,
   4515.000000,
   4520.000000,
   4525.000000,
   4530.000000,
   4535.000000,
   4540.000000,
   4545.000000,
   4550.000000,
   4555.000000,
   4560.000000,
   4565.000000,
   4570.000000,
   4575.000000,
   4580.000000,
   4585.000000,
   4590.000000,
   4595.000000,
   4600.000000,
   4605.000000,
   4610.000000,
   4615.000000,
   4620.000000,
   4625.000000,
   4630.000000,
   4635.000000,
   4640.000000,
   4645.000000,
   4650.000000,
   4655.000000,
   4660.000000,
   4665.000000,
   4670.000000,
   4675.000000,
   4680.000000,
   4685.000000,
   4690.000000,
   4695.000000,
   4700.000000,
   4705.000000,
   4710.000000,
   4715.000000,
   4720.000000,
   4725.000000,
   4730.000000,
   4735.000000,
   4740.000000,
   4745.000000,
   4750.000000,
   4755.000000,
   4760.000000,
   4765.000000,
   4770.000000,
   4775.000000,
   4780.000000,
   4785.000000,
   4790.000000,
   4795.000000,
   4800.000000,
   4805.000000,
   4810.000000,
   4815.000000,
   4820.000000,
   4825.000000,
   4830.000000,
   4835.000000,
   4840.000000,
   4845.000000,
   4850.000000,
   4855.000000,
   4860.000000,
   4865.000000,
   4870.000000,
   4875.000000,
   4880.000000,
   4885.000000,
   4890.000000,
   4895.000000,
   4900.000000,
   4905.000000,
   4910.000000,
   4915.000000,
   4920.000000,
   4925.000000,
   4930.000000,
   4935.000000,
   4940.000000,
   4945.000000,
   4950.000000,
   4955.000000,
   4960.000000,
   4965.000000,
   4970.000000,
   4975.000000,
   4980.000000,
   4985.000000,
   4990.000000,
   4995.000000,
   5000.000000,
   5005.000000,
   5010.000000,
   5015.000000,
   5020.000000,
   5025.000000,
   5030.000000,
   5035.000000,
   5040.000000,
   5045.000000,
   5050.000000,
   5055.000000,
   5060.000000,
   5065.000000,
   5070.000000,
   5075.000000,
   5080.000000,
   5085.000000,
   5090.000000,
   5095.000000,
   5100.000000,
   5105.000000,
   5110.000000,
   5115.000000,
   5120.000000,
   5125.000000,
   5130.000000,
   5135.000000,
   5140.000000,
   5145.000000,
   5150.000000,
   5155.000000,
   5160.000000,
   5165.000000,
   5170.000000,
   5175.000000,
   5180.000000,
   5185.000000,
   5190.000000,
   5195.000000,
   5200.000000,
   5205.000000,
   5210.000000,
   5215.000000,
   5220.000000,
   5225.000000,
   5230.000000,
   5235.000000,
   5240.000000,
   5245.000000,
   5250.000000,
   5255.000000,
   5260.000000,
   5265.000000,
   5270.000000,
   5275.000000,
   5280.000000,
   5285.000000,
   5290.000000,
   5295.000000,
   5300.000000,
   5305.000000,
   5310.000000,
   5315.000000,
   5320.000000,
   5325.000000,
   5330.000000,
   5335.000000,
   5340.000000,
   5345.000000,
   5350.000000,
   5355.000000,
   5360.000000,
   5365.000000,
   5370.000000,
   5375.000000,
   5380.000000,
   5385.000000,
   5390.000000,
   5395.000000,
   5400.000000,
   5405.000000,
   5410.000000,
   5415.000000,
   5420.000000,
   5425.000000,
   5430.000000,
   5435.000000,
   5440.000000,
   5445.000000,
   5450.000000,
   5455.000000,
   5460.000000,
   5465.000000,
   5470.000000,
   5475.000000,
   5480.000000,
   5485.000000,
   5490.000000,
   5495.000000,
   5500.000000,
   5505.000000,
   5510.000000,
   5515.000000,
   5520.000000,
   5525.000000,
   5530.000000,
   5535.000000,
   5540.000000,
   5545.000000,
   5550.000000,
   5555.000000,
   5560.000000,
   5565.000000,
   5570.000000,
   5575.000000,
   5580.000000,
   5585.000000,
   5590.000000,
   5595.000000,
   5600.000000,
   5605.000000,
   5610.000000,
   5615.000000,
   5620.000000,
   5625.000000,
   5630.000000,
   5635.000000,
   5640.000000,
   5645.000000,
   5650.000000,
   5655.000000,
   5660.000000,
   5665.000000,
   5670.000000,
   5675.000000,
   5680.000000,
   5685.000000,
   5690.000000,
   5695.000000,
   5700.000000,
   5705.000000,
   5710.000000,
   5715.000000,
   5720.000000,
   5725.000000,
   5730.000000,
   5735.000000,
   5740.000000,
   5745.000000,
   5750.000000,
   5755.000000,
   5760.000000,
   5765.000000,
   5770.000000,
   5775.000000,
   5780.000000,
   5785.000000,
   5790.000000,
   5795.000000,
   5800.000000,
   5805.000000,
   5810.000000,
   5815.000000,
   5820.000000,
   5825.000000,
   5830.000000,
   5835.000000,
   5840.000000,
   5845.000000,
   5850.000000,
   5855.000000,
   5860.000000,
   5865.000000,
   5870.000000,
   5875.000000,
   5880.000000,
   5885.000000,
   5890.000000,
   5895.000000,
   5900.000000,
   5905.000000,
   5910.000000,
   5915.000000,
   5920.000000,
   5925.000000,
   5930.000000,
   5935.000000,
   5940.000000,
   5945.000000,
   5950.000000,
   5955.000000,
   5960.000000,
   5965.000000,
   5970.000000,
   5975.000000,
   5980.000000,
   5985.000000,
   5990.000000,
   5995.000000,
   6000.000000,
   6005.000000,
   6010.000000,
   6015.000000,
   6020.000000,
   6025.000000,
   6030.000000,
   6035.000000,
   6040.000000,
   6045.000000,
   6050.000000,
   6055.000000,
   6060.000000,
   6065.000000,
   6070.000000,
   6075.000000,
   6080.000000,
   6085.000000,
   6090.000000,
   6095.000000,
   6100.000000,
   6105.000000,
   6110.000000,
   6115.000000,
   6120.000000,
   6125.000000,
   6130.000000,
   6135.000000,
   6140.000000,
   6145.000000,
   6150.000000,
   6155.000000,
   6160.000000,
   6165.000000,
   6170.000000,
   6175.000000,
   6180.000000,
   6185.000000,
   6190.000000,
   6195.000000,
   6200.000000,
   6205.000000,
   6210.000000,
   6215.000000,
   6220.000000,
   6225.000000,
   6230.000000,
   6235.000000,
   6240.000000,
   6245.000000,
   6250.000000,
   6255.000000,
   6260.000000,
   6265.000000,
   6270.000000,
   6275.000000,
   6280.000000,
   6285.000000,
   6290.000000,
   6295.000000,
   6300.000000,
   6305.000000,
   6310.000000,
   6315.000000,
   6320.000000,
   6325.000000,
   6330.000000,
   6335.000000,
   6340.000000,
   6345.000000,
   6350.000000,
   6355.000000,
   6360.000000,
   6365.000000,
   6370.000000,
   6375.000000,
   6380.000000,
   6385.000000,
   6390.000000,
   6395.000000,
   6400.000000,
   6405.000000,
   6410.000000,
   6415.000000,
   6420.000000,
   6425.000000,
   6430.000000,
   6435.000000,
   6440.000000,
   6445.000000,
   6450.000000,
   6455.000000,
   6460.000000,
   6465.000000,
   6470.000000,
   6475.000000,
   6480.000000,
   6485.000000,
   6490.000000,
   6495.000000,
   6500.000000,
   6505.000000,
   6510.000000,
   6515.000000,
   6520.000000,
   6525.000000,
   6530.000000,
   6535.000000,
   6540.000000,
   6545.000000,
   6550.000000,
   6555.000000,
   6560.000000,
   6565.000000,
   6570.000000,
   6575.000000,
   6580.000000,
   6585.000000,
   6590.000000,
   6595.000000,
   6600.000000,
   6605.000000,
   6610.000000,
   6615.000000,
   6620.000000,
   6625.000000,
   6630.000000,
   6635.000000,
   6640.000000,
   6645.000000,
   6650.000000,
   6655.000000,
   6660.000000,
   6665.000000,
   6670.000000,
   6675.000000,
   6680.000000,
   6685.000000,
   6690.000000,
   6695.000000,
   6700.000000,
   6705.000000,
   6710.000000,
   6715.000000,
   6720.000000,
   6725.000000,
   6730.000000,
   6735.000000,
   6740.000000,
   6745.000000,
   6750.000000,
   6755.000000,
   6760.000000,
   6765.000000,
   6770.000000,
   6775.000000,
   6780.000000,
   6785.000000,
   6790.000000,
   6795.000000,
   6800.000000,
   6805.000000,
   6810.000000,
   6815.000000,
   6820.000000,
   6825.000000,
   6830.000000,
   6835.000000,
   6840.000000,
   6845.000000,
   6850.000000,
   6855.000000,
   6860.000000,
   6865.000000,
   6870.000000,
   6875.000000,
   6880.000000,
   6885.000000,
   6890.000000,
   6895.000000,
   6900.000000,
   6905.000000,
   6910.000000,
   6915.000000,
   6920.000000,
   6925.000000,
   6930.000000,
   6935.000000,
   6940.000000,
   6945.000000,
   6950.000000,
   6955.000000,
   6960.000000,
   6965.000000,
   6970.000000,
   6975.000000,
   6980.000000,
   6985.000000,
   6990.000000,
   6995.000000,
   7000.000000,
   7005.000000,
   7010.000000,
   7015.000000,
   7020.000000,
   7025.000000,
   7030.000000,
   7035.000000,
   7040.000000,
   7045.000000,
   7050.000000,
   7055.000000,
   7060.000000,
   7065.000000,
   7070.000000,
   7075.000000,
   7080.000000,
   7085.000000,
   7090.000000,
   7095.000000,
   7100.000000,
   7105.000000,
   7110.000000,
   7115.000000,
   7120.000000,
   7125.000000,
   7130.000000,
   7135.000000,
   7140.000000,
   7145.000000,
   7150.000000,
   7155.000000,
   7160.000000,
   7165.000000,
   7170.000000,
   7175.000000,
   7180.000000,
   7185.000000,
   7190.000000,
   7195.000000,
   7200.000000,
   7205.000000,
   7210.000000,
   7215.000000,
   7220.000000,
   7225.000000,
   7230.000000,
   7235.000000,
   7240.000000,
   7245.000000,
   7250.000000,
   7255.000000,
   7260.000000,
   7265.000000,
   7270.000000,
   7275.000000,
   7280.000000,
   7285.000000,
   7290.000000,
   7295.000000,
   7300.000000,
   7305.000000,
   7310.000000,
   7315.000000,
   7320.000000,
   7325.000000,
   7330.000000,
   7335.000000,
   7340.000000,
   7345.000000,
   7350.000000,
   7355.000000,
   7360.000000,
   7365.000000,
   7370.000000,
   7375.000000,
   7380.000000,
   7385.000000,
   7390.000000,
   7395.000000,
   7400.000000,
   7405.000000,
   7410.000000,
   7415.000000,
   7420.000000,
   7425.000000,
   7430.000000,
   7435.000000,
   7440.000000,
   7445.000000,
   7450.000000,
   7455.000000,
   7460.000000,
   7465.000000,
   7470.000000,
   7475.000000,
   7480.000000,
   7485.000000,
   7490.000000,
   7495.000000,
   7500.000000,
   7505.000000,
   7510.000000,
   7515.000000,
   7520.000000,
   7525.000000,
   7530.000000,
   7535.000000,
   7540.000000,
   7545.000000,
   7550.000000,
   7555.000000,
   7560.000000,
   7565.000000,
   7570.000000,
   7575.000000,
   7580.000000,
   7585.000000,
   7590.000000,
   7595.000000,
   7600.000000,
   7605.000000,
   7610.000000,
   7615.000000,
   7620.000000,
   7625.000000,
   7630.000000,
   7635.000000,
   7640.000000,
   7645.000000,
   7650.000000,
   7655.000000,
   7660.000000,
   7665.000000,
   7670.000000,
   7675.000000,
   7680.000000,
   7685.000000,
   7690.000000,
   7695.000000,
   7700.000000,
   7705.000000,
   7710.000000,
   7715.000000,
   7720.000000,
   7725.000000,
   7730.000000,
   7735.000000,
   7740.000000,
   7745.000000,
   7750.000000,
   7755.000000,
   7760.000000,
   7765.000000,
   7770.000000,
   7775.000000,
   7780.000000,
   7785.000000,
   7790.000000,
   7795.000000,
   7800.000000,
   7805.000000,
   7810.000000,
   7815.000000,
   7820.000000,
   7825.000000,
   7830.000000,
   7835.000000,
   7840.000000,
   7845.000000,
   7850.000000,
   7855.000000,
   7860.000000,
   7865.000000,
   7870.000000,
   7875.000000,
   7880.000000,
   7885.000000,
   7890.000000,
   7895.000000,
   7900.000000,
   7905.000000,
   7910.000000,
   7915.000000,
   7920.000000,
   7925.000000,
   7930.000000,
   7935.000000,
   7940.000000,
   7945.000000,
   7950.000000,
   7955.000000,
   7960.000000,
   7965.000000,
   7970.000000,
   7975.000000,
   7980.000000,
   7985.000000,
   7990.000000,
   7995.000000,
   8000.000000,
   8005.000000,
   8010.000000,
   8015.000000,
   8020.000000,
   8025.000000,
   8030.000000,
   8035.000000,
   8040.000000,
   8045.000000,
   8050.000000,
   8055.000000,
   8060.000000,
   8065.000000,
   8070.000000,
   8075.000000,
   8080.000000,
   8085.000000,
   8090.000000,
   8095.000000,
   8100.000000,
   8105.000000,
   8110.000000,
   8115.000000,
   8120.000000,
   8125.000000,
   8130.000000,
   8135.000000,
   8140.000000,
   8145.000000,
   8150.000000,
   8155.000000,
   8160.000000,
   8165.000000,
   8170.000000,
   8175.000000,
   8180.000000,
   8185.000000,
   8190.000000,
   8195.000000,
   8200.000000,
   8205.000000,
   8210.000000,
   8215.000000,
   8220.000000,
   8225.000000,
   8230.000000,
   8235.000000,
   8240.000000,
   8245.000000,
   8250.000000,
   8255.000000,
   8260.000000,
   8265.000000,
   8270.000000,
   8275.000000,
   8280.000000,
   8285.000000,
   8290.000000,
   8295.000000,
   8300.000000,
   8305.000000,
   8310.000000,
   8315.000000,
   8320.000000,
   8325.000000,
   8330.000000,
   8335.000000,
   8340.000000,
   8345.000000,
   8350.000000,
   8355.000000,
   8360.000000,
   8365.000000,
   8370.000000,
   8375.000000,
   8380.000000,
   8385.000000,
   8390.000000,
   8395.000000,
   8400.000000,
   8405.000000,
   8410.000000,
   8415.000000,
   8420.000000,
   8425.000000,
   8430.000000,
   8435.000000,
   8440.000000,
   8445.000000,
   8450.000000,
   8455.000000,
   8460.000000,
   8465.000000,
   8470.000000,
   8475.000000,
   8480.000000,
   8485.000000,
   8490.000000,
   8495.000000,
   8500.000000,
   8505.000000,
   8510.000000,
   8515.000000,
   8520.000000,
   8525.000000,
   8530.000000,
   8535.000000,
   8540.000000,
   8545.000000,
   8550.000000,
   8555.000000,
   8560.000000,
   8565.000000,
   8570.000000,
   8575.000000,
   8580.000000,
   8585.000000,
   8590.000000,
   8595.000000,
   8600.000000,
   8605.000000,
   8610.000000,
   8615.000000,
   8620.000000,
   8625.000000,
   8630.000000,
   8635.000000,
   8640.000000,
   8645.000000,
   8650.000000,
   8655.000000,
   8660.000000,
   8665.000000,
   8670.000000,
   8675.000000,
   8680.000000,
   8685.000000,
   8690.000000,
   8695.000000,
   8700.000000,
   8705.000000,
   8710.000000,
   8715.000000,
   8720.000000,
   8725.000000,
   8730.000000,
   8735.000000,
   8740.000000,
   8745.000000,
   8750.000000,
   8755.000000,
   8760.000000,
   8765.000000,
   8770.000000,
   8775.000000,
   8780.000000,
   8785.000000,
   8790.000000,
   8795.000000,
   8800.000000,
   8805.000000,
   8810.000000,
   8815.000000,
   8820.000000,
   8825.000000,
   8830.000000,
   8835.000000,
   8840.000000,
   8845.000000,
   8850.000000,
   8855.000000,
   8860.000000,
   8865.000000,
   8870.000000,
   8875.000000,
   8880.000000,
   8885.000000,
   8890.000000,
   8895.000000,
   8900.000000,
   8905.000000,
   8910.000000,
   8915.000000,
   8920.000000,
   8925.000000,
   8930.000000,
   8935.000000,
   8940.000000,
   8945.000000,
   8950.000000,
   8955.000000,
   8960.000000,
   8965.000000,
   8970.000000,
   8975.000000,
   8980.000000,
   8985.000000,
   8990.000000,
   8995.000000,
   9000.000000,
   9005.000000,
   9010.000000,
   9015.000000,
   9020.000000,
   9025.000000,
   9030.000000,
   9035.000000,
   9040.000000,
   9045.000000,
   9050.000000,
   9055.000000,
   9060.000000,
   9065.000000,
   9070.000000,
   9075.000000,
   9080.000000,
   9085.000000,
   9090.000000,
   9095.000000,
   9100.000000,
   9105.000000,
   9110.000000,
   9115.000000,
   9120.000000,
   9125.000000,
   9130.000000,
   9135.000000,
   9140.000000,
   9145.000000,
   9150.000000,
   9155.000000,
   9160.000000,
   9165.000000,
   9170.000000,
   9175.000000,
   9180.000000,
   9185.000000,
   9190.000000,
   9195.000000,
   9200.000000,
   9205.000000,
   9210.000000,
   9215.000000,
   9220.000000,
   9225.000000,
   9230.000000,
   9235.000000,
   9240.000000,
   9245.000000,
   9250.000000,
   9255.000000,
   9260.000000,
   9265.000000,
   9270.000000,
   9275.000000,
   9280.000000,
   9285.000000,
   9290.000000,
   9295.000000,
   9300.000000,
   9305.000000,
   9310.000000,
   9315.000000,
   9320.000000,
   9325.000000,
   9330.000000,
   9335.000000,
   9340.000000,
   9345.000000,
   9350.000000,
   9355.000000,
   9360.000000,
   9365.000000,
   9370.000000,
   9375.000000,
   9380.000000,
   9385.000000,
   9390.000000,
   9395.000000,
   9400.000000,
   9405.000000,
   9410.000000,
   9415.000000,
   9420.000000,
   9425.000000,
   9430.000000,
   9435.000000,
   9440.000000,
   9445.000000,
   9450.000000,
   9455.000000,
   9460.000000,
   9465.000000,
   9470.000000,
   9475.000000,
   9480.000000,
   9485.000000,
   9490.000000,
   9495.000000,
   9500.000000,
   9505.000000,
   9510.000000,
   9515.000000,
   9520.000000,
   9525.000000,
   9530.000000,
   9535.000000,
   9540.000000,
   9545.000000,
   9550.000000,
   9555.000000,
   9560.000000,
   9565.000000,
   9570.000000,
   9575.000000,
   9580.000000,
   9585.000000,
   9590.000000,
   9595.000000,
   9600.000000,
   9605.000000,
   9610.000000,
   9615.000000,
   9620.000000,
   9625.000000,
   9630.000000,
   9635.000000,
   9640.000000,
   9645.000000,
   9650.000000,
   9655.000000,
   9660.000000,
   9665.000000,
   9670.000000,
   9675.000000,
   9680.000000,
   9685.000000,
   9690.000000,
   9695.000000,
   9700.000000,
   9705.000000,
   9710.000000,
   9715.000000,
   9720.000000,
   9725.000000,
   9730.000000,
   9735.000000,
   9740.000000,
   9745.000000,
   9750.000000,
   9755.000000,
   9760.000000,
   9765.000000,
   9770.000000,
   9775.000000,
   9780.000000,
   9785.000000,
   9790.000000,
   9795.000000,
   9800.000000,
   9805.000000,
   9810.000000,
   9815.000000,
   9820.000000,
   9825.000000,
   9830.000000,
   9835.000000,
   9840.000000,
   9845.000000,
   9850.000000,
   9855.000000,
   9860.000000,
   9865.000000,
   9870.000000,
   9875.000000,
   9880.000000,
   9885.000000,
   9890.000000,
   9895.000000,
   9900.000000,
   9905.000000,
   9910.000000,
   9915.000000,
   9920.000000,
   9925.000000,
   9930.000000,
   9935.000000,
   9940.000000,
   9945.000000,
   9950.000000,
   9955.000000,
   9960.000000,
   9965.000000,
   9970.000000,
   9975.000000,
   9980.000000,
   9985.000000,
   9990.000000,
   9995.000000,
   10000.000000,
   10005.000000,
   10010.000000,
   10015.000000,
   10020.000000,
   10025.000000,
   10030.000000,
   10035.000000,
   10040.000000,
   10045.000000,
   10050.000000,
   10055.000000,
   10060.000000,
   10065.000000,
   10070.000000,
   10075.000000,
   10080.000000,
   10085.000000,
   10090.000000,
   10095.000000,
   10100.000000,
   10105.000000,
   10110.000000,
   10115.000000,
   10120.000000,
   10125.000000,
   10130.000000,
   10135.000000,
   10140.000000,
   10145.000000,
   10150.000000,
   10155.000000,
   10160.000000,
   10165.000000,
   10170.000000,
   10175.000000,
   10180.000000,
   10185.000000,
   10190.000000,
   10195.000000,
   10200.000000,
   10205.000000,
   10210.000000,
   10215.000000,
   10220.000000,
   10225.000000,
   10230.000000,
   10235.000000,
   10240.000000,
   10245.000000,
   10250.000000,
   10255.000000,
   10260.000000,
   10265.000000,
   10270.000000,
   10275.000000,
   10280.000000,
   10285.000000,
   10290.000000,
   10295.000000,
   10300.000000,
   10305.000000,
   10310.000000,
   10315.000000,
   10320.000000,
   10325.000000,
   10330.000000,
   10335.000000,
   10340.000000,
   10345.000000,
   10350.000000,
   10355.000000,
   10360.000000,
   10365.000000,
   10370.000000,
   10375.000000,
   10380.000000,
   10385.000000,
   10390.000000,
   10395.000000,
   10400.000000,
   10405.000000,
   10410.000000,
   10415.000000,
   10420.000000,
   10425.000000,
   10430.000000,
   10435.000000,
   10440.000000,
   10445.000000,
   10450.000000,
   10455.000000,
   10460.000000,
   10465.000000,
   10470.000000,
   10475.000000,
   10480.000000,
   10485.000000,
   10490.000000,
   10495.000000,
   10500.000000,
   10505.000000,
   10510.000000,
   10515.000000,
   10520.000000,
   10525.000000,
   10530.000000,
   10535.000000,
   10540.000000,
   10545.000000,
   10550.000000,
   10555.000000,
   10560.000000,
   10565.000000,
   10570.000000,
   10575.000000,
   10580.000000,
   10585.000000,
   10590.000000,
   10595.000000,
   10600.000000,
   10605.000000,
   10610.000000,
   10615.000000,
   10620.000000
};

static double _g2v_flux[] = {
   0.005082,
   0.005716,
   0.004689,
   0.000359,
   0.000000,
   0.000000,
   0.001253,
   0.000836,
   0.000000,
   0.000000,
   0.000978,
   0.003427,
   0.014576,
   0.025653,
   0.015790,
   0.002736,
   0.000356,
   0.000375,
   0.000328,
   0.000216,
   0.000167,
   0.000174,
   0.000168,
   0.000000,
   0.000000,
   0.000082,
   0.000304,
   0.000279,
   0.000055,
   0.000054,
   0.000167,
   0.000000,
   0.000126,
   0.000262,
   0.000199,
   0.000124,
   0.000192,
   0.000163,
   0.000058,
   0.000008,
   0.000078,
   0.000154,
   0.000179,
   0.000231,
   0.000135,
   0.000212,
   0.000277,
   0.000246,
   0.000068,
   0.000204,
   0.000291,
   0.000394,
   0.000328,
   0.000084,
   0.000000,
   0.000128,
   0.000276,
   0.000200,
   0.000343,
   0.000711,
   0.000565,
   0.000275,
   0.000128,
   0.000179,
   0.000329,
   0.000381,
   0.000381,
   0.000275,
   0.000293,
   0.000329,
   0.000325,
   0.000311,
   0.000308,
   0.000306,
   0.000274,
   0.000288,
   0.000351,
   0.000427,
   0.000464,
   0.000695,
   0.000675,
   0.000392,
   0.000500,
   0.000524,
   0.000521,
   0.000617,
   0.000470,
   0.000463,
   0.000489,
   0.000344,
   0.000280,
   0.000434,
   0.000414,
   0.000230,
   0.000187,
   0.000290,
   0.000455,
   0.000526,
   0.000319,
   0.000424,
   0.000534,
   0.000466,
   0.000677,
   0.000706,
   0.000586,
   0.000462,
   0.000664,
   0.000652,
   0.000623,
   0.000711,
   0.000832,
   0.000686,
   0.000569,
   0.000627,
   0.000747,
   0.000828,
   0.000815,
   0.000950,
   0.000995,
   0.001181,
   0.001186,
   0.001120,
   0.001220,
   0.001412,
   0.001490,
   0.001745,
   0.001541,
   0.001371,
   0.000967,
   0.001127,
   0.001467,
   0.001623,
   0.001887,
   0.002088,
   0.002249,
   0.002140,
   0.002131,
   0.002192,
   0.002153,
   0.001986,
   0.001976,
   0.002155,
   0.002450,
   0.002617,
   0.002765,
   0.002860,
   0.002963,
   0.003149,
   0.003294,
   0.003313,
   0.002993,
   0.003064,
   0.003380,
   0.003503,
   0.003759,
   0.003608,
   0.003354,
   0.003215,
   0.003626,
   0.004566,
   0.005012,
   0.008995,
   0.010055,
   0.004911,
   0.000295,
   0.000000,
   0.003241,
   0.015064,
   0.015603,
   0.009057,
   0.007740,
   0.000000,
   0.000000,
   0.000700,
   0.000000,
   0.000000,
   0.000000,
   0.000000,
   0.000000,
   0.000341,
   0.005308,
   0.006569,
   0.009876,
   0.004810,
   0.004110,
   0.011889,
   0.020138,
   0.015668,
   0.012194,
   0.008776,
   0.021611,
   0.031566,
   0.031846,
   0.026237,
   0.029499,
   0.029215,
   0.009825,
   0.024919,
   0.028913,
   0.030909,
   0.033451,
   0.028848,
   0.026421,
   0.009410,
   0.000000,
   0.012311,
   0.031692,
   0.034002,
   0.024761,
   0.019812,
   0.029614,
   0.027234,
   0.035438,
   0.017169,
   0.024701,
   0.027087,
   0.018759,
   0.026533,
   0.034448,
   0.033774,
   0.018539,
   0.035133,
   0.035546,
   0.021022,
   0.015677,
   0.016348,
   0.017509,
   0.013526,
   0.023356,
   0.025687,
   0.026765,
   0.024297,
   0.028361,
   0.021753,
   0.030736,
   0.044063,
   0.034347,
   0.026033,
   0.030064,
   0.025175,
   0.025118,
   0.028056,
   0.031535,
   0.029473,
   0.033593,
   0.030104,
   0.028848,
   0.025036,
   0.028740,
   0.027826,
   0.023852,
   0.023307,
   0.024979,
   0.028243,
   0.040283,
   0.049357,
   0.054097,
   0.053936,
   0.053528,
   0.045263,
   0.026766,
   0.019070,
   0.028033,
   0.032614,
   0.031199,
   0.031747,
   0.033326,
   0.027108,
   0.020692,
   0.032735,
   0.047327,
   0.047712,
   0.041577,
   0.031738,
   0.026462,
   0.025625,
   0.032463,
   0.035805,
   0.034952,
   0.037796,
   0.042480,
   0.050775,
   0.052776,
   0.061693,
   0.074882,
   0.078690,
   0.085599,
   0.080713,
   0.075674,
   0.062810,
   0.057058,
   0.055278,
   0.052596,
   0.058630,
   0.068985,
   0.064010,
   0.068166,
   0.115762,
   0.157758,
   0.155111,
   0.146410,
   0.166810,
   0.163095,
   0.150992,
   0.158767,
   0.153490,
   0.153292,
   0.153474,
   0.142673,
   0.137087,
   0.152027,
   0.161003,
   0.152719,
   0.142726,
   0.111732,
   0.121943,
   0.130760,
   0.112199,
   0.085468,
   0.076629,
   0.086787,
   0.097320,
   0.117896,
   0.140208,
   0.151711,
   0.132739,
   0.109492,
   0.094585,
   0.064213,
   0.044813,
   0.045432,
   0.058237,
   0.082846,
   0.131822,
   0.160971,
   0.172266,
   0.183699,
   0.182509,
   0.171154,
   0.139063,
   0.093371,
   0.110207,
   0.174730,
   0.197891,
   0.192863,
   0.190981,
   0.172387,
   0.205484,
   0.225269,
   0.230019,
   0.249400,
   0.257460,
   0.266879,
   0.274093,
   0.264002,
   0.251392,
   0.255227,
   0.263403,
   0.267518,
   0.272634,
   0.272683,
   0.283750,
   0.283497,
   0.258115,
   0.264793,
   0.286063,
   0.263510,
   0.245569,
   0.270396,
   0.272232,
   0.247853,
   0.258144,
   0.281940,
   0.272695,
   0.269320,
   0.303246,
   0.336718,
   0.336059,
   0.325202,
   0.335170,
   0.340169,
   0.315201,
   0.312508,
   0.332141,
   0.357919,
   0.360621,
   0.371465,
   0.389536,
   0.329768,
   0.300130,
   0.318412,
   0.377619,
   0.405047,
   0.384255,
   0.345787,
   0.349035,
   0.392387,
   0.393963,
   0.362675,
   0.329897,
   0.329690,
   0.310953,
   0.330912,
   0.354601,
   0.383438,
   0.379879,
   0.346311,
   0.337924,
   0.339474,
   0.357637,
   0.434292,
   0.407676,
   0.395703,
   0.382476,
   0.365698,
   0.344803,
   0.335752,
   0.350860,
   0.371337,
   0.379684,
   0.394678,
   0.434762,
   0.480786,
   0.508253,
   0.508896,
   0.484463,
   0.460527,
   0.462162,
   0.488622,
   0.527556,
   0.546023,
   0.520585,
   0.486423,
   0.480614,
   0.489229,
   0.490994,
   0.486301,
   0.481693,
   0.486673,
   0.504988,
   0.514405,
   0.495205,
   0.463719,
   0.442079,
   0.439565,
   0.457055,
   0.474676,
   0.476897,
   0.486304,
   0.521697,
   0.548605,
   0.533998,
   0.503882,
   0.492031,
   0.504248,
   0.531607,
   0.534239,
   0.484743,
   0.436515,
   0.442258,
   0.471081,
   0.482779,
   0.483451,
   0.486439,
   0.487722,
   0.481212,
   0.469911,
   0.461280,
   0.471515,
   0.508579,
   0.538769,
   0.531498,
   0.518760,
   0.513850,
   0.501890,
   0.494325,
   0.525963,
   0.566635,
   0.590042,
   0.596099,
   0.585416,
   0.566318,
   0.545905,
   0.496117,
   0.455816,
   0.445318,
   0.412671,
   0.413621,
   0.473621,
   0.545896,
   0.571384,
   0.533555,
   0.487770,
   0.488318,
   0.509028,
   0.555356,
   0.555075,
   0.555206,
   0.571581,
   0.552104,
   0.567049,
   0.642009,
   0.687129,
   0.682047,
   0.660108,
   0.643117,
   0.612598,
   0.608042,
   0.631152,
   0.665260,
   0.670925,
   0.626265,
   0.626582,
   0.642053,
   0.575034,
   0.574043,
   0.552913,
   0.493606,
   0.512447,
   0.502900,
   0.515827,
   0.589654,
   0.592701,
   0.606931,
   0.645343,
   0.722127,
   0.768365,
   0.722539,
   0.639462,
   0.595047,
   0.624126,
   0.688344,
   0.682991,
   0.592221,
   0.506420,
   0.434491,
   0.390596,
   0.388614,
   0.453437,
   0.571416,
   0.619059,
   0.585118,
   0.555904,
   0.590198,
   0.589577,
   0.579261,
   0.571969,
   0.561166,
   0.587270,
   0.645114,
   0.667237,
   0.682108,
   0.731181,
   0.728618,
   0.645622,
   0.500201,
   0.338399,
   0.323218,
   0.462809,
   0.605310,
   0.707606,
   0.706217,
   0.586114,
   0.405779,
   0.370592,
   0.564894,
   0.765395,
   0.851625,
   0.881534,
   0.894116,
   0.905630,
   0.909692,
   0.935471,
   0.959490,
   0.968435,
   0.956982,
   0.931391,
   0.942599,
   0.954668,
   0.915544,
   0.925731,
   0.912356,
   0.888346,
   0.886738,
   0.903187,
   0.906994,
   0.930557,
   0.984106,
   0.997511,
   0.924068,
   0.838686,
   0.880407,
   0.970122,
   1.008174,
   1.002105,
   0.975973,
   0.951740,
   0.965156,
   0.984227,
   0.973429,
   0.972260,
   0.972471,
   0.993926,
   0.992176,
   0.958356,
   0.934049,
   0.940842,
   0.941747,
   0.946738,
   0.929488,
   0.912858,
   0.957974,
   1.001294,
   0.995049,
   0.953452,
   0.883585,
   0.896658,
   0.924826,
   0.942473,
   0.934806,
   0.909864,
   0.908420,
   0.915789,
   0.912390,
   0.864865,
   0.871388,
   0.902695,
   0.886512,
   0.845403,
   0.786818,
   0.696120,
   0.652619,
   0.694093,
   0.861021,
   0.972003,
   0.953444,
   0.965911,
   0.921040,
   0.853788,
   0.904223,
   0.960630,
   0.987351,
   1.016644,
   1.028874,
   1.003229,
   0.964771,
   0.923884,
   0.887943,
   0.931171,
   0.974085,
   0.982810,
   0.980564,
   1.019291,
   1.041052,
   1.064096,
   1.069034,
   1.062512,
   1.050416,
   1.062716,
   1.078051,
   1.074172,
   1.021640,
   1.007319,
   1.044007,
   1.091918,
   1.115163,
   1.102047,
   1.099198,
   1.100451,
   1.112635,
   1.141888,
   1.167513,
   1.168923,
   1.141476,
   1.119032,
   1.058887,
   1.023343,
   1.062880,
   1.106131,
   1.091992,
   1.071562,
   1.100118,
   1.131385,
   1.130998,
   1.136722,
   1.129608,
   1.103150,
   1.102101,
   1.106476,
   1.098050,
   1.095198,
   1.115900,
   1.130048,
   1.127749,
   1.137495,
   1.139508,
   1.133797,
   1.112807,
   1.101811,
   1.081697,
   1.078493,
   1.103147,
   1.118307,
   1.071996,
   1.062896,
   1.083195,
   1.091888,
   1.100047,
   1.099731,
   1.090817,
   1.058025,
   1.050226,
   1.068330,
   1.103344,
   1.129726,
   1.109633,
   1.075239,
   1.084826,
   1.108335,
   1.126090,
   1.120450,
   1.101453,
   1.092336,
   1.082092,
   1.104987,
   1.132488,
   1.135162,
   1.113821,
   1.109454,
   1.128419,
   1.130773,
   1.118817,
   1.112826,
   1.130485,
   1.132031,
   1.115323,
   1.108741,
   1.101109,
   1.090508,
   1.098480,
   1.077241,
   0.978746,
   0.871057,
   0.920138,
   0.993945,
   1.043033,
   1.071847,
   1.046182,
   1.034567,
   1.084442,
   1.114931,
   1.111977,
   1.084056,
   1.048063,
   1.002470,
   1.049057,
   1.097459,
   1.074866,
   1.066343,
   1.104984,
   1.115814,
   1.078531,
   1.067814,
   1.092007,
   1.092470,
   1.082224,
   1.039957,
   1.034750,
   1.071797,
   1.072875,
   1.050619,
   1.020208,
   1.013747,
   0.998610,
   1.005138,
   1.037299,
   1.059317,
   1.041466,
   1.009378,
   1.028970,
   1.047373,
   1.065857,
   1.081087,
   1.059640,
   1.043401,
   1.025400,
   1.012832,
   1.040964,
   1.068281,
   1.047173,
   1.028840,
   1.030077,
   1.039163,
   1.061152,
   1.048967,
   1.019428,
   1.015270,
   1.009257,
   0.990184,
   0.997964,
   1.016369,
   1.029429,
   1.006730,
   0.891644,
   0.823366,
   0.888602,
   0.913770,
   0.909038,
   0.957227,
   0.987167,
   1.008146,
   0.990462,
   0.993715,
   1.018666,
   1.024462,
   0.988940,
   0.976666,
   1.013394,
   1.054198,
   1.049581,
   1.030738,
   1.032745,
   1.005484,
   0.925301,
   0.913742,
   0.969930,
   1.009905,
   1.042292,
   1.063214,
   1.036435,
   1.017362,
   1.050274,
   1.074499,
   1.064240,
   1.030370,
   0.979597,
   0.984233,
   1.018634,
   1.016944,
   1.022005,
   1.037141,
   1.062522,
   1.057955,
   1.014925,
   0.994898,
   1.020582,
   1.040212,
   1.037739,
   1.021735,
   1.001173,
   0.988018,
   0.975435,
   0.989970,
   1.015343,
   1.022781,
   1.015395,
   1.005726,
   1.020884,
   1.045811,
   1.025044,
   1.019689,
   1.019824,
   1.022677,
   1.024847,
   1.024073,
   1.004306,
   0.998716,
   1.016028,
   1.023611,
   1.026447,
   1.023137,
   1.011279,
   1.007663,
   1.017693,
   1.027863,
   1.008390,
   0.995580,
   1.006226,
   1.014458,
   1.022911,
   1.035792,
   1.026001,
   1.009795,
   0.999987,
   0.985774,
   0.996308,
   1.003174,
   0.972017,
   0.951389,
   0.962356,
   0.968274,
   0.991870,
   1.014176,
   0.985475,
   0.977003,
   0.991798,
   1.002870,
   0.999024,
   0.993800,
   1.000355,
   1.003628,
   0.980990,
   0.966090,
   0.978790,
   0.995988,
   1.001294,
   0.990128,
   0.976887,
   0.983844,
   0.993423,
   0.985478,
   0.963133,
   0.946715,
   0.970418,
   0.998827,
   1.009951,
   1.007534,
   1.006265,
   1.004988,
   0.996785,
   0.986005,
   0.977923,
   0.980486,
   0.989233,
   0.998086,
   0.991215,
   0.972659,
   0.967996,
   0.978565,
   0.986119,
   0.992440,
   0.992459,
   0.989583,
   0.993285,
   0.998539,
   1.000468,
   1.001253,
   1.000307,
   1.004800,
   0.997713,
   0.983073,
   0.964711,
   0.963660,
   0.976306,
   0.990117,
   0.993651,
   0.980279,
   0.936414,
   0.880882,
   0.884634,
   0.936319,
   0.967248,
   0.965754,
   0.962158,
   0.964644,
   0.959739,
   0.954167,
   0.962117,
   0.963282,
   0.954106,
   0.945275,
   0.951621,
   0.956975,
   0.957732,
   0.956113,
   0.947454,
   0.942227,
   0.935494,
   0.939756,
   0.946718,
   0.941581,
   0.931255,
   0.928113,
   0.922387,
   0.915487,
   0.922294,
   0.936590,
   0.944483,
   0.942276,
   0.944600,
   0.943203,
   0.940348,
   0.937022,
   0.937302,
   0.944079,
   0.937730,
   0.923365,
   0.922472,
   0.920540,
   0.917552,
   0.909478,
   0.914290,
   0.925407,
   0.919066,
   0.908251,
   0.913453,
   0.914213,
   0.894988,
   0.893707,
   0.907686,
   0.911450,
   0.901461,
   0.877425,
   0.870504,
   0.883694,
   0.902729,
   0.914025,
   0.909567,
   0.899182,
   0.907211,
   0.918601,
   0.920861,
   0.911459,
   0.899816,
   0.897840,
   0.900371,
   0.890009,
   0.889914,
   0.891645,
   0.884995,
   0.882685,
   0.874363,
   0.880907,
   0.888584,
   0.895844,
   0.884446,
   0.871340,
   0.888366,
   0.893403,
   0.883873,
   0.871578,
   0.879247,
   0.882429,
   0.870079,
   0.872024,
   0.885587,
   0.888227,
   0.875830,
   0.874041,
   0.882533,
   0.886941,
   0.878723,
   0.867422,
   0.870948,
   0.883124,
   0.885584,
   0.881486,
   0.881575,
   0.878433,
   0.868262,
   0.864959,
   0.864668,
   0.860005,
   0.861260,
   0.861595,
   0.869242,
   0.869200,
   0.865795,
   0.867549,
   0.871708,
   0.863434,
   0.859563,
   0.854425,
   0.854891,
   0.859490,
   0.860400,
   0.860612,
   0.860303,
   0.844957,
   0.822216,
   0.840559,
   0.861233,
   0.867623,
   0.858056,
   0.854604,
   0.856817,
   0.857373,
   0.856350,
   0.851930,
   0.843432,
   0.827816,
   0.780450,
   0.692390,
   0.711242,
   0.788844,
   0.825503,
   0.840141,
   0.839707,
   0.833247,
   0.832675,
   0.843404,
   0.839014,
   0.839047,
   0.844121,
   0.846284,
   0.841410,
   0.830698,
   0.826958,
   0.830757,
   0.831529,
   0.835740,
   0.835794,
   0.829450,
   0.826453,
   0.829759,
   0.823324,
   0.821800,
   0.828000,
   0.828885,
   0.824073,
   0.821649,
   0.821639,
   0.820694,
   0.812485,
   0.810858,
   0.815696,
   0.817796,
   0.818808,
   0.817750,
   0.815413,
   0.812663,
   0.814398,
   0.815935,
   0.811957,
   0.807737,
   0.811292,
   0.812913,
   0.812185,
   0.812556,
   0.809360,
   0.808936,
   0.806182,
   0.807216,
   0.808478,
   0.807398,
   0.807382,
   0.804835,
   0.800275,
   0.795609,
   0.794537,
   0.796489,
   0.794921,
   0.793806,
   0.795883,
   0.795046,
   0.796145,
   0.795985,
   0.793245,
   0.793170,
   0.793507,
   0.793695,
   0.793928,
   0.793120,
   0.790206,
   0.789170,
   0.790324,
   0.790505,
   0.791335,
   0.789982,
   0.787735,
   0.788032,
   0.788212,
   0.789064,
   0.790837,
   0.791169,
   0.782555,
   0.779749,
   0.786410,
   0.785492,
   0.783309,
   0.776015,
   0.770033,
   0.773020,
   0.767284,
   0.768585,
   0.767883,
   0.773244,
   0.770708,
   0.774885,
   0.783386,
   0.779925,
   0.773857,
   0.771932,
   0.770422,
   0.772711,
   0.776206,
   0.773112,
   0.764940,
   0.764888,
   0.770268,
   0.774676,
   0.773710,
   0.768156,
   0.765904,
   0.767442,
   0.765305,
   0.764639,
   0.770658,
   0.775775,
   0.764908,
   0.758747,
   0.767353,
   0.764381,
   0.747413,
   0.743430,
   0.736048,
   0.728280,
   0.706308,
   0.699458,
   0.708488,
   0.715763,
   0.721104,
   0.737996,
   0.752626,
   0.752490,
   0.751857,
   0.747519,
   0.733027,
   0.731210,
   0.734263,
   0.737737,
   0.733353,
   0.734414,
   0.733998,
   0.734189,
   0.722197,
   0.720528,
   0.717270,
   0.705044,
   0.716439,
   0.729109,
   0.719806,
   0.717306,
   0.727355,
   0.731458,
   0.726928,
   0.723875,
   0.730554,
   0.738515,
   0.735201,
   0.726185,
   0.720442,
   0.722637,
   0.723290,
   0.726164,
   0.727337,
   0.724242,
   0.707042,
   0.698474,
   0.708286,
   0.713472,
   0.711745,
   0.701639,
   0.699265,
   0.703161,
   0.713703,
   0.723088,
   0.725638,
   0.718455,
   0.709469,
   0.714362,
   0.720681,
   0.718446,
   0.720477,
   0.724471,
   0.720318,
   0.716198,
   0.715309,
   0.710614,
   0.703404,
   0.706395,
   0.705196,
   0.697315,
   0.703980,
   0.707967,
   0.702271,
   0.700020,
   0.705758,
   0.710571,
   0.708382,
   0.705093,
   0.702211,
   0.701111,
   0.701478,
   0.699346,
   0.699283,
   0.698186,
   0.696916,
   0.701046,
   0.704924,
   0.704533,
   0.699822,
   0.693765,
   0.690196,
   0.691631,
   0.694484,
   0.694886,
   0.696026,
   0.695744,
   0.694091,
   0.692129,
   0.688083,
   0.683185,
   0.682113,
   0.686186,
   0.689467,
   0.688437,
   0.686372,
   0.685257,
   0.682882,
   0.683669,
   0.685430,
   0.684312,
   0.681220,
   0.680800,
   0.679069,
   0.678383,
   0.682685,
   0.680344,
   0.668805,
   0.664765,
   0.674443,
   0.679326,
   0.680625,
   0.675970,
   0.668990,
   0.666127,
   0.669086,
   0.671058,
   0.670165,
   0.667622,
   0.667474,
   0.667013,
   0.671796,
   0.673455,
   0.672676,
   0.663908,
   0.657882,
   0.663534,
   0.665769,
   0.664377,
   0.665293,
   0.666835,
   0.665541,
   0.663438,
   0.662049,
   0.658992,
   0.664705,
   0.663347,
   0.656459,
   0.653854,
   0.656381,
   0.656380,
   0.652558,
   0.647379,
   0.646199,
   0.642579,
   0.637595,
   0.636736,
   0.633067,
   0.639264,
   0.645642,
   0.646332,
   0.648742,
   0.650563,
   0.650891,
   0.650396,
   0.650655,
   0.648909,
   0.639733,
   0.632408,
   0.637529,
   0.640617,
   0.642993,
   0.642230,
   0.633929,
   0.630272,
   0.635481,
   0.637217,
   0.628279,
   0.625676,
   0.633726,
   0.639763,
   0.636563,
   0.632635,
   0.632108,
   0.633137,
   0.628983,
   0.626730,
   0.621499,
   0.621456,
   0.627417,
   0.630883,
   0.627897,
   0.626697,
   0.628785,
   0.626399,
   0.622677,
   0.618581,
   0.612767,
   0.608805,
   0.608553,
   0.606221,
   0.599255,
   0.598151,
   0.598969,
   0.596189,
   0.593318,
   0.593088,
   0.582209,
   0.584347,
   0.603927,
   0.611909,
   0.608786,
   0.595491,
   0.583771,
   0.573048,
   0.588109,
   0.602611,
   0.606225,
   0.606182,
   0.601318,
   0.603953,
   0.610054,
   0.608629,
   0.597766,
   0.592641,
   0.593902,
   0.591942,
   0.592002,
   0.592872,
   0.591201,
   0.590469,
   0.589907,
   0.588485,
   0.587144,
   0.581086,
   0.577415,
   0.577606,
   0.581247,
   0.589313,
   0.594596,
   0.592246,
   0.589839,
   0.589367,
   0.589758,
   0.588394,
   0.580767,
   0.579495,
   0.586767,
   0.590153,
   0.587659,
   0.585979,
   0.584813,
   0.582816,
   0.581878,
   0.582306,
   0.577615,
   0.576943,
   0.578018,
   0.581426,
   0.586382,
   0.586966,
   0.580400,
   0.574977,
   0.578963,
   0.581099,
   0.582478,
   0.575734,
   0.541112,
   0.518919,
   0.548519,
   0.566907,
   0.561876,
   0.562967,
   0.560720,
   0.556593,
   0.533104,
   0.470578,
   0.455200,
   0.493179,
   0.528126,
   0.548589,
   0.557109,
   0.556065,
   0.554502,
   0.551658,
   0.550155,
   0.549889,
   0.547927,
   0.548112,
   0.551382,
   0.549207,
   0.545339,
   0.547508,
   0.549927,
   0.553501,
   0.555455,
   0.553612,
   0.548326,
   0.543854,
   0.528390,
   0.483386,
   0.459981,
   0.484862,
   0.515558,
   0.534187,
   0.532410,
   0.528819,
   0.541546,
   0.552242,
   0.552452,
   0.547124,
   0.546700,
   0.550689,
   0.549280,
   0.545693,
   0.541498,
   0.541167,
   0.542470,
   0.539118,
   0.537752,
   0.542509,
   0.544149,
   0.542620,
   0.542143,
   0.544172,
   0.542028,
   0.535469,
   0.534685,
   0.533454,
   0.519369,
   0.519803,
   0.534331,
   0.537004,
   0.533475,
   0.537002,
   0.532539,
   0.528836,
   0.532877,
   0.535338,
   0.533999,
   0.526584,
   0.519002,
   0.521219,
   0.527849,
   0.530812,
   0.533406,
   0.533253,
   0.529767,
   0.530621,
   0.533929,
   0.531850,
   0.530904,
   0.527219,
   0.522237,
   0.521325,
   0.527223,
   0.527244,
   0.521045,
   0.518661,
   0.521846,
   0.520934,
   0.516380,
   0.514718,
   0.514993,
   0.519719,
   0.511104,
   0.500889,
   0.519686,
   0.510414,
   0.504233,
   0.507196,
   0.502798,
   0.507463,
   0.509525,
   0.520743,
   0.528254,
   0.526047,
   0.525391,
   0.524824,
   0.522752,
   0.513013,
   0.508522,
   0.509038,
   0.508574,
   0.501736,
   0.498862,
   0.495238,
   0.493051,
   0.498726,
   0.504248,
   0.507130,
   0.503796,
   0.504595,
   0.508993,
   0.501844,
   0.497631,
   0.505696,
   0.504413,
   0.495708,
   0.490877,
   0.503130,
   0.507556,
   0.498205,
   0.492865,
   0.498245,
   0.504985,
   0.503994,
   0.501370,
   0.505411,
   0.503588,
   0.495978,
   0.490336,
   0.494961,
   0.505156,
   0.502255,
   0.493773,
   0.491874,
   0.495033,
   0.494855,
   0.488905,
   0.489381,
   0.502154,
   0.507256,
   0.506449,
   0.504406,
   0.503810,
   0.503213,
   0.497074,
   0.496119,
   0.488078,
   0.485696,
   0.475526,
   0.464529,
   0.464446,
   0.468864,
   0.455123,
   0.445558,
   0.441646,
   0.466603,
   0.450737,
   0.457718,
   0.468573,
   0.462417,
   0.466412,
   0.469436,
   0.484521,
   0.503170,
   0.516482,
   0.505362,
   0.495938,
   0.480549,
   0.477481,
   0.478069,
   0.467333,
   0.462439,
   0.470023,
   0.443009,
   0.458991,
   0.478589,
   0.461817,
   0.454430,
   0.474806,
   0.478944,
   0.472438,
   0.465421,
   0.476001,
   0.485216,
   0.460394,
   0.445872,
   0.475539,
   0.487561,
   0.470495,
   0.451242,
   0.459976,
   0.467631,
   0.476545,
   0.477428,
   0.461580,
   0.462153,
   0.457716,
   0.460379,
   0.456007,
   0.457123,
   0.469002,
   0.459083,
   0.455889,
   0.450201,
   0.455455,
   0.462730,
   0.458551,
   0.459004,
   0.456447,
   0.452397,
   0.448754,
   0.448661,
   0.441023,
   0.439934,
   0.439030,
   0.439194,
   0.439706,
   0.441959,
   0.442416,
   0.450579,
   0.459629,
   0.461718,
   0.465253,
   0.465917,
   0.468454,
   0.462948,
   0.459854,
   0.463764,
   0.465608,
   0.462434,
   0.459248,
   0.458861,
   0.450407,
   0.441496,
   0.439500,
   0.437174,
   0.429915,
   0.426948,
   0.431041,
   0.434496,
   0.432595,
   0.437481,
   0.439542,
   0.433000,
   0.429809,
   0.432330,
   0.435064,
   0.439696,
   0.434857,
   0.443793,
   0.438544,
   0.441588,
   0.442566,
   0.444898,
   0.433231,
   0.439232,
   0.440228,
   0.431162,
   0.431703,
   0.430814,
   0.432203,
   0.436179,
   0.431334,
   0.434920,
   0.433698,
   0.432012,
   0.438060,
   0.432614,
   0.421319,
   0.433935,
   0.429554,
   0.425654,
   0.424976,
   0.435930,
   0.434684,
   0.430893,
   0.433336,
   0.430942,
   0.432009,
   0.428170,
   0.429406,
   0.432578,
   0.423996,
   0.429640,
   0.431518,
   0.422387,
   0.428724,
   0.422733,
   0.420320,
   0.434482,
   0.425183,
   0.426962,
   0.420146,
   0.414841,
   0.409894,
   0.399655,
   0.406965,
   0.414905,
   0.410252,
   0.410158,
   0.421878,
   0.420582,
   0.415651,
   0.413862,
   0.407402,
   0.413436,
   0.415776,
   0.418556,
   0.415105,
   0.415051,
   0.406084,
   0.409849,
   0.410214,
   0.403862,
   0.410259,
   0.413868,
   0.412187,
   0.410892,
   0.414793,
   0.413951,
   0.401412,
   0.405233,
   0.406446,
   0.409123,
   0.411669,
   0.412489,
   0.410530,
   0.406912,
   0.403298,
   0.401348,
   0.402160,
   0.404572,
   0.406859,
   0.407291,
   0.404713,
   0.400242,
   0.395568,
   0.392376,
   0.391892,
   0.393482,
   0.396048,
   0.398492,
   0.399941,
   0.400416,
   0.400159,
   0.399417,
   0.398373,
   0.396967,
   0.395079,
   0.392589,
   0.389515,
   0.386418,
   0.383998,
   0.382956,
   0.383712,
   0.385579,
   0.387588,
   0.388773,
   0.388529,
   0.387701,
   0.387496,
   0.389121,
   0.393270,
   0.398586,
   0.403199,
   0.405239,
   0.403466,
   0.399161,
   0.394237,
   0.390606,
   0.389590,
   0.390155,
   0.390677,
   0.389533,
   0.385695,
   0.380521,
   0.375968,
   0.373989,
   0.375877,
   0.380268,
   0.385136,
   0.388455,
   0.388775,
   0.386956,
   0.384435,
   0.382649,
   0.382643,
   0.383894,
   0.385487,
   0.386508,
   0.386303,
   0.385260,
   0.384028,
   0.383259,
   0.383379,
   0.383928,
   0.384225,
   0.383586,
   0.381559,
   0.378606,
   0.375421,
   0.372694,
   0.370933,
   0.369903,
   0.369182,
   0.368349,
   0.367077,
   0.365406,
   0.363469,
   0.361399
};

#endif
