#ifndef _G5II_H_
#define _G5II_H_

/* spectrum for g5ii star           */
/* number of elements = 1895       */

static double _g5ii_lambda[] = {
   1150.000000,
   1155.000000,
   1160.000000,
   1165.000000,
   1170.000000,
   1175.000000,
   1180.000000,
   1185.000000,
   1190.000000,
   1195.000000,
   1200.000000,
   1205.000000,
   1210.000000,
   1215.000000,
   1220.000000,
   1225.000000,
   1230.000000,
   1235.000000,
   1240.000000,
   1245.000000,
   1250.000000,
   1255.000000,
   1260.000000,
   1265.000000,
   1270.000000,
   1275.000000,
   1280.000000,
   1285.000000,
   1290.000000,
   1295.000000,
   1300.000000,
   1305.000000,
   1310.000000,
   1315.000000,
   1320.000000,
   1325.000000,
   1330.000000,
   1335.000000,
   1340.000000,
   1345.000000,
   1350.000000,
   1355.000000,
   1360.000000,
   1365.000000,
   1370.000000,
   1375.000000,
   1380.000000,
   1385.000000,
   1390.000000,
   1395.000000,
   1400.000000,
   1405.000000,
   1410.000000,
   1415.000000,
   1420.000000,
   1425.000000,
   1430.000000,
   1435.000000,
   1440.000000,
   1445.000000,
   1450.000000,
   1455.000000,
   1460.000000,
   1465.000000,
   1470.000000,
   1475.000000,
   1480.000000,
   1485.000000,
   1490.000000,
   1495.000000,
   1500.000000,
   1505.000000,
   1510.000000,
   1515.000000,
   1520.000000,
   1525.000000,
   1530.000000,
   1535.000000,
   1540.000000,
   1545.000000,
   1550.000000,
   1555.000000,
   1560.000000,
   1565.000000,
   1570.000000,
   1575.000000,
   1580.000000,
   1585.000000,
   1590.000000,
   1595.000000,
   1600.000000,
   1605.000000,
   1610.000000,
   1615.000000,
   1620.000000,
   1625.000000,
   1630.000000,
   1635.000000,
   1640.000000,
   1645.000000,
   1650.000000,
   1655.000000,
   1660.000000,
   1665.000000,
   1670.000000,
   1675.000000,
   1680.000000,
   1685.000000,
   1690.000000,
   1695.000000,
   1700.000000,
   1705.000000,
   1710.000000,
   1715.000000,
   1720.000000,
   1725.000000,
   1730.000000,
   1735.000000,
   1740.000000,
   1745.000000,
   1750.000000,
   1755.000000,
   1760.000000,
   1765.000000,
   1770.000000,
   1775.000000,
   1780.000000,
   1785.000000,
   1790.000000,
   1795.000000,
   1800.000000,
   1805.000000,
   1810.000000,
   1815.000000,
   1820.000000,
   1825.000000,
   1830.000000,
   1835.000000,
   1840.000000,
   1845.000000,
   1850.000000,
   1855.000000,
   1860.000000,
   1865.000000,
   1870.000000,
   1875.000000,
   1880.000000,
   1885.000000,
   1890.000000,
   1895.000000,
   1900.000000,
   1905.000000,
   1910.000000,
   1915.000000,
   1920.000000,
   1925.000000,
   1930.000000,
   1935.000000,
   1940.000000,
   1945.000000,
   1950.000000,
   1955.000000,
   1960.000000,
   1965.000000,
   1970.000000,
   1975.000000,
   1980.000000,
   1985.000000,
   1990.000000,
   1995.000000,
   2000.000000,
   2005.000000,
   2010.000000,
   2015.000000,
   2020.000000,
   2025.000000,
   2030.000000,
   2035.000000,
   2040.000000,
   2045.000000,
   2050.000000,
   2055.000000,
   2060.000000,
   2065.000000,
   2070.000000,
   2075.000000,
   2080.000000,
   2085.000000,
   2090.000000,
   2095.000000,
   2100.000000,
   2105.000000,
   2110.000000,
   2115.000000,
   2120.000000,
   2125.000000,
   2130.000000,
   2135.000000,
   2140.000000,
   2145.000000,
   2150.000000,
   2155.000000,
   2160.000000,
   2165.000000,
   2170.000000,
   2175.000000,
   2180.000000,
   2185.000000,
   2190.000000,
   2195.000000,
   2200.000000,
   2205.000000,
   2210.000000,
   2215.000000,
   2220.000000,
   2225.000000,
   2230.000000,
   2235.000000,
   2240.000000,
   2245.000000,
   2250.000000,
   2255.000000,
   2260.000000,
   2265.000000,
   2270.000000,
   2275.000000,
   2280.000000,
   2285.000000,
   2290.000000,
   2295.000000,
   2300.000000,
   2305.000000,
   2310.000000,
   2315.000000,
   2320.000000,
   2325.000000,
   2330.000000,
   2335.000000,
   2340.000000,
   2345.000000,
   2350.000000,
   2355.000000,
   2360.000000,
   2365.000000,
   2370.000000,
   2375.000000,
   2380.000000,
   2385.000000,
   2390.000000,
   2395.000000,
   2400.000000,
   2405.000000,
   2410.000000,
   2415.000000,
   2420.000000,
   2425.000000,
   2430.000000,
   2435.000000,
   2440.000000,
   2445.000000,
   2450.000000,
   2455.000000,
   2460.000000,
   2465.000000,
   2470.000000,
   2475.000000,
   2480.000000,
   2485.000000,
   2490.000000,
   2495.000000,
   2500.000000,
   2505.000000,
   2510.000000,
   2515.000000,
   2520.000000,
   2525.000000,
   2530.000000,
   2535.000000,
   2540.000000,
   2545.000000,
   2550.000000,
   2555.000000,
   2560.000000,
   2565.000000,
   2570.000000,
   2575.000000,
   2580.000000,
   2585.000000,
   2590.000000,
   2595.000000,
   2600.000000,
   2605.000000,
   2610.000000,
   2615.000000,
   2620.000000,
   2625.000000,
   2630.000000,
   2635.000000,
   2640.000000,
   2645.000000,
   2650.000000,
   2655.000000,
   2660.000000,
   2665.000000,
   2670.000000,
   2675.000000,
   2680.000000,
   2685.000000,
   2690.000000,
   2695.000000,
   2700.000000,
   2705.000000,
   2710.000000,
   2715.000000,
   2720.000000,
   2725.000000,
   2730.000000,
   2735.000000,
   2740.000000,
   2745.000000,
   2750.000000,
   2755.000000,
   2760.000000,
   2765.000000,
   2770.000000,
   2775.000000,
   2780.000000,
   2785.000000,
   2790.000000,
   2795.000000,
   2800.000000,
   2805.000000,
   2810.000000,
   2815.000000,
   2820.000000,
   2825.000000,
   2830.000000,
   2835.000000,
   2840.000000,
   2845.000000,
   2850.000000,
   2855.000000,
   2860.000000,
   2865.000000,
   2870.000000,
   2875.000000,
   2880.000000,
   2885.000000,
   2890.000000,
   2895.000000,
   2900.000000,
   2905.000000,
   2910.000000,
   2915.000000,
   2920.000000,
   2925.000000,
   2930.000000,
   2935.000000,
   2940.000000,
   2945.000000,
   2950.000000,
   2955.000000,
   2960.000000,
   2965.000000,
   2970.000000,
   2975.000000,
   2980.000000,
   2985.000000,
   2990.000000,
   2995.000000,
   3000.000000,
   3005.000000,
   3010.000000,
   3015.000000,
   3020.000000,
   3025.000000,
   3030.000000,
   3035.000000,
   3040.000000,
   3045.000000,
   3050.000000,
   3055.000000,
   3060.000000,
   3065.000000,
   3070.000000,
   3075.000000,
   3080.000000,
   3085.000000,
   3090.000000,
   3095.000000,
   3100.000000,
   3105.000000,
   3110.000000,
   3115.000000,
   3120.000000,
   3125.000000,
   3130.000000,
   3135.000000,
   3140.000000,
   3145.000000,
   3150.000000,
   3155.000000,
   3160.000000,
   3165.000000,
   3170.000000,
   3175.000000,
   3180.000000,
   3185.000000,
   3190.000000,
   3195.000000,
   3200.000000,
   3205.000000,
   3210.000000,
   3215.000000,
   3220.000000,
   3225.000000,
   3230.000000,
   3235.000000,
   3240.000000,
   3245.000000,
   3250.000000,
   3255.000000,
   3260.000000,
   3265.000000,
   3270.000000,
   3275.000000,
   3280.000000,
   3285.000000,
   3290.000000,
   3295.000000,
   3300.000000,
   3305.000000,
   3310.000000,
   3315.000000,
   3320.000000,
   3325.000000,
   3330.000000,
   3335.000000,
   3340.000000,
   3345.000000,
   3350.000000,
   3355.000000,
   3360.000000,
   3365.000000,
   3370.000000,
   3375.000000,
   3380.000000,
   3385.000000,
   3390.000000,
   3395.000000,
   3400.000000,
   3405.000000,
   3410.000000,
   3415.000000,
   3420.000000,
   3425.000000,
   3430.000000,
   3435.000000,
   3440.000000,
   3445.000000,
   3450.000000,
   3455.000000,
   3460.000000,
   3465.000000,
   3470.000000,
   3475.000000,
   3480.000000,
   3485.000000,
   3490.000000,
   3495.000000,
   3500.000000,
   3505.000000,
   3510.000000,
   3515.000000,
   3520.000000,
   3525.000000,
   3530.000000,
   3535.000000,
   3540.000000,
   3545.000000,
   3550.000000,
   3555.000000,
   3560.000000,
   3565.000000,
   3570.000000,
   3575.000000,
   3580.000000,
   3585.000000,
   3590.000000,
   3595.000000,
   3600.000000,
   3605.000000,
   3610.000000,
   3615.000000,
   3620.000000,
   3625.000000,
   3630.000000,
   3635.000000,
   3640.000000,
   3645.000000,
   3650.000000,
   3655.000000,
   3660.000000,
   3665.000000,
   3670.000000,
   3675.000000,
   3680.000000,
   3685.000000,
   3690.000000,
   3695.000000,
   3700.000000,
   3705.000000,
   3710.000000,
   3715.000000,
   3720.000000,
   3725.000000,
   3730.000000,
   3735.000000,
   3740.000000,
   3745.000000,
   3750.000000,
   3755.000000,
   3760.000000,
   3765.000000,
   3770.000000,
   3775.000000,
   3780.000000,
   3785.000000,
   3790.000000,
   3795.000000,
   3800.000000,
   3805.000000,
   3810.000000,
   3815.000000,
   3820.000000,
   3825.000000,
   3830.000000,
   3835.000000,
   3840.000000,
   3845.000000,
   3850.000000,
   3855.000000,
   3860.000000,
   3865.000000,
   3870.000000,
   3875.000000,
   3880.000000,
   3885.000000,
   3890.000000,
   3895.000000,
   3900.000000,
   3905.000000,
   3910.000000,
   3915.000000,
   3920.000000,
   3925.000000,
   3930.000000,
   3935.000000,
   3940.000000,
   3945.000000,
   3950.000000,
   3955.000000,
   3960.000000,
   3965.000000,
   3970.000000,
   3975.000000,
   3980.000000,
   3985.000000,
   3990.000000,
   3995.000000,
   4000.000000,
   4005.000000,
   4010.000000,
   4015.000000,
   4020.000000,
   4025.000000,
   4030.000000,
   4035.000000,
   4040.000000,
   4045.000000,
   4050.000000,
   4055.000000,
   4060.000000,
   4065.000000,
   4070.000000,
   4075.000000,
   4080.000000,
   4085.000000,
   4090.000000,
   4095.000000,
   4100.000000,
   4105.000000,
   4110.000000,
   4115.000000,
   4120.000000,
   4125.000000,
   4130.000000,
   4135.000000,
   4140.000000,
   4145.000000,
   4150.000000,
   4155.000000,
   4160.000000,
   4165.000000,
   4170.000000,
   4175.000000,
   4180.000000,
   4185.000000,
   4190.000000,
   4195.000000,
   4200.000000,
   4205.000000,
   4210.000000,
   4215.000000,
   4220.000000,
   4225.000000,
   4230.000000,
   4235.000000,
   4240.000000,
   4245.000000,
   4250.000000,
   4255.000000,
   4260.000000,
   4265.000000,
   4270.000000,
   4275.000000,
   4280.000000,
   4285.000000,
   4290.000000,
   4295.000000,
   4300.000000,
   4305.000000,
   4310.000000,
   4315.000000,
   4320.000000,
   4325.000000,
   4330.000000,
   4335.000000,
   4340.000000,
   4345.000000,
   4350.000000,
   4355.000000,
   4360.000000,
   4365.000000,
   4370.000000,
   4375.000000,
   4380.000000,
   4385.000000,
   4390.000000,
   4395.000000,
   4400.000000,
   4405.000000,
   4410.000000,
   4415.000000,
   4420.000000,
   4425.000000,
   4430.000000,
   4435.000000,
   4440.000000,
   4445.000000,
   4450.000000,
   4455.000000,
   4460.000000,
   4465.000000,
   4470.000000,
   4475.000000,
   4480.000000,
   4485.000000,
   4490.000000,
   4495.000000,
   4500.000000,
   4505.000000,
   4510.000000,
   4515.000000,
   4520.000000,
   4525.000000,
   4530.000000,
   4535.000000,
   4540.000000,
   4545.000000,
   4550.000000,
   4555.000000,
   4560.000000,
   4565.000000,
   4570.000000,
   4575.000000,
   4580.000000,
   4585.000000,
   4590.000000,
   4595.000000,
   4600.000000,
   4605.000000,
   4610.000000,
   4615.000000,
   4620.000000,
   4625.000000,
   4630.000000,
   4635.000000,
   4640.000000,
   4645.000000,
   4650.000000,
   4655.000000,
   4660.000000,
   4665.000000,
   4670.000000,
   4675.000000,
   4680.000000,
   4685.000000,
   4690.000000,
   4695.000000,
   4700.000000,
   4705.000000,
   4710.000000,
   4715.000000,
   4720.000000,
   4725.000000,
   4730.000000,
   4735.000000,
   4740.000000,
   4745.000000,
   4750.000000,
   4755.000000,
   4760.000000,
   4765.000000,
   4770.000000,
   4775.000000,
   4780.000000,
   4785.000000,
   4790.000000,
   4795.000000,
   4800.000000,
   4805.000000,
   4810.000000,
   4815.000000,
   4820.000000,
   4825.000000,
   4830.000000,
   4835.000000,
   4840.000000,
   4845.000000,
   4850.000000,
   4855.000000,
   4860.000000,
   4865.000000,
   4870.000000,
   4875.000000,
   4880.000000,
   4885.000000,
   4890.000000,
   4895.000000,
   4900.000000,
   4905.000000,
   4910.000000,
   4915.000000,
   4920.000000,
   4925.000000,
   4930.000000,
   4935.000000,
   4940.000000,
   4945.000000,
   4950.000000,
   4955.000000,
   4960.000000,
   4965.000000,
   4970.000000,
   4975.000000,
   4980.000000,
   4985.000000,
   4990.000000,
   4995.000000,
   5000.000000,
   5005.000000,
   5010.000000,
   5015.000000,
   5020.000000,
   5025.000000,
   5030.000000,
   5035.000000,
   5040.000000,
   5045.000000,
   5050.000000,
   5055.000000,
   5060.000000,
   5065.000000,
   5070.000000,
   5075.000000,
   5080.000000,
   5085.000000,
   5090.000000,
   5095.000000,
   5100.000000,
   5105.000000,
   5110.000000,
   5115.000000,
   5120.000000,
   5125.000000,
   5130.000000,
   5135.000000,
   5140.000000,
   5145.000000,
   5150.000000,
   5155.000000,
   5160.000000,
   5165.000000,
   5170.000000,
   5175.000000,
   5180.000000,
   5185.000000,
   5190.000000,
   5195.000000,
   5200.000000,
   5205.000000,
   5210.000000,
   5215.000000,
   5220.000000,
   5225.000000,
   5230.000000,
   5235.000000,
   5240.000000,
   5245.000000,
   5250.000000,
   5255.000000,
   5260.000000,
   5265.000000,
   5270.000000,
   5275.000000,
   5280.000000,
   5285.000000,
   5290.000000,
   5295.000000,
   5300.000000,
   5305.000000,
   5310.000000,
   5315.000000,
   5320.000000,
   5325.000000,
   5330.000000,
   5335.000000,
   5340.000000,
   5345.000000,
   5350.000000,
   5355.000000,
   5360.000000,
   5365.000000,
   5370.000000,
   5375.000000,
   5380.000000,
   5385.000000,
   5390.000000,
   5395.000000,
   5400.000000,
   5405.000000,
   5410.000000,
   5415.000000,
   5420.000000,
   5425.000000,
   5430.000000,
   5435.000000,
   5440.000000,
   5445.000000,
   5450.000000,
   5455.000000,
   5460.000000,
   5465.000000,
   5470.000000,
   5475.000000,
   5480.000000,
   5485.000000,
   5490.000000,
   5495.000000,
   5500.000000,
   5505.000000,
   5510.000000,
   5515.000000,
   5520.000000,
   5525.000000,
   5530.000000,
   5535.000000,
   5540.000000,
   5545.000000,
   5550.000000,
   5555.000000,
   5560.000000,
   5565.000000,
   5570.000000,
   5575.000000,
   5580.000000,
   5585.000000,
   5590.000000,
   5595.000000,
   5600.000000,
   5605.000000,
   5610.000000,
   5615.000000,
   5620.000000,
   5625.000000,
   5630.000000,
   5635.000000,
   5640.000000,
   5645.000000,
   5650.000000,
   5655.000000,
   5660.000000,
   5665.000000,
   5670.000000,
   5675.000000,
   5680.000000,
   5685.000000,
   5690.000000,
   5695.000000,
   5700.000000,
   5705.000000,
   5710.000000,
   5715.000000,
   5720.000000,
   5725.000000,
   5730.000000,
   5735.000000,
   5740.000000,
   5745.000000,
   5750.000000,
   5755.000000,
   5760.000000,
   5765.000000,
   5770.000000,
   5775.000000,
   5780.000000,
   5785.000000,
   5790.000000,
   5795.000000,
   5800.000000,
   5805.000000,
   5810.000000,
   5815.000000,
   5820.000000,
   5825.000000,
   5830.000000,
   5835.000000,
   5840.000000,
   5845.000000,
   5850.000000,
   5855.000000,
   5860.000000,
   5865.000000,
   5870.000000,
   5875.000000,
   5880.000000,
   5885.000000,
   5890.000000,
   5895.000000,
   5900.000000,
   5905.000000,
   5910.000000,
   5915.000000,
   5920.000000,
   5925.000000,
   5930.000000,
   5935.000000,
   5940.000000,
   5945.000000,
   5950.000000,
   5955.000000,
   5960.000000,
   5965.000000,
   5970.000000,
   5975.000000,
   5980.000000,
   5985.000000,
   5990.000000,
   5995.000000,
   6000.000000,
   6005.000000,
   6010.000000,
   6015.000000,
   6020.000000,
   6025.000000,
   6030.000000,
   6035.000000,
   6040.000000,
   6045.000000,
   6050.000000,
   6055.000000,
   6060.000000,
   6065.000000,
   6070.000000,
   6075.000000,
   6080.000000,
   6085.000000,
   6090.000000,
   6095.000000,
   6100.000000,
   6105.000000,
   6110.000000,
   6115.000000,
   6120.000000,
   6125.000000,
   6130.000000,
   6135.000000,
   6140.000000,
   6145.000000,
   6150.000000,
   6155.000000,
   6160.000000,
   6165.000000,
   6170.000000,
   6175.000000,
   6180.000000,
   6185.000000,
   6190.000000,
   6195.000000,
   6200.000000,
   6205.000000,
   6210.000000,
   6215.000000,
   6220.000000,
   6225.000000,
   6230.000000,
   6235.000000,
   6240.000000,
   6245.000000,
   6250.000000,
   6255.000000,
   6260.000000,
   6265.000000,
   6270.000000,
   6275.000000,
   6280.000000,
   6285.000000,
   6290.000000,
   6295.000000,
   6300.000000,
   6305.000000,
   6310.000000,
   6315.000000,
   6320.000000,
   6325.000000,
   6330.000000,
   6335.000000,
   6340.000000,
   6345.000000,
   6350.000000,
   6355.000000,
   6360.000000,
   6365.000000,
   6370.000000,
   6375.000000,
   6380.000000,
   6385.000000,
   6390.000000,
   6395.000000,
   6400.000000,
   6405.000000,
   6410.000000,
   6415.000000,
   6420.000000,
   6425.000000,
   6430.000000,
   6435.000000,
   6440.000000,
   6445.000000,
   6450.000000,
   6455.000000,
   6460.000000,
   6465.000000,
   6470.000000,
   6475.000000,
   6480.000000,
   6485.000000,
   6490.000000,
   6495.000000,
   6500.000000,
   6505.000000,
   6510.000000,
   6515.000000,
   6520.000000,
   6525.000000,
   6530.000000,
   6535.000000,
   6540.000000,
   6545.000000,
   6550.000000,
   6555.000000,
   6560.000000,
   6565.000000,
   6570.000000,
   6575.000000,
   6580.000000,
   6585.000000,
   6590.000000,
   6595.000000,
   6600.000000,
   6605.000000,
   6610.000000,
   6615.000000,
   6620.000000,
   6625.000000,
   6630.000000,
   6635.000000,
   6640.000000,
   6645.000000,
   6650.000000,
   6655.000000,
   6660.000000,
   6665.000000,
   6670.000000,
   6675.000000,
   6680.000000,
   6685.000000,
   6690.000000,
   6695.000000,
   6700.000000,
   6705.000000,
   6710.000000,
   6715.000000,
   6720.000000,
   6725.000000,
   6730.000000,
   6735.000000,
   6740.000000,
   6745.000000,
   6750.000000,
   6755.000000,
   6760.000000,
   6765.000000,
   6770.000000,
   6775.000000,
   6780.000000,
   6785.000000,
   6790.000000,
   6795.000000,
   6800.000000,
   6805.000000,
   6810.000000,
   6815.000000,
   6820.000000,
   6825.000000,
   6830.000000,
   6835.000000,
   6840.000000,
   6845.000000,
   6850.000000,
   6855.000000,
   6860.000000,
   6865.000000,
   6870.000000,
   6875.000000,
   6880.000000,
   6885.000000,
   6890.000000,
   6895.000000,
   6900.000000,
   6905.000000,
   6910.000000,
   6915.000000,
   6920.000000,
   6925.000000,
   6930.000000,
   6935.000000,
   6940.000000,
   6945.000000,
   6950.000000,
   6955.000000,
   6960.000000,
   6965.000000,
   6970.000000,
   6975.000000,
   6980.000000,
   6985.000000,
   6990.000000,
   6995.000000,
   7000.000000,
   7005.000000,
   7010.000000,
   7015.000000,
   7020.000000,
   7025.000000,
   7030.000000,
   7035.000000,
   7040.000000,
   7045.000000,
   7050.000000,
   7055.000000,
   7060.000000,
   7065.000000,
   7070.000000,
   7075.000000,
   7080.000000,
   7085.000000,
   7090.000000,
   7095.000000,
   7100.000000,
   7105.000000,
   7110.000000,
   7115.000000,
   7120.000000,
   7125.000000,
   7130.000000,
   7135.000000,
   7140.000000,
   7145.000000,
   7150.000000,
   7155.000000,
   7160.000000,
   7165.000000,
   7170.000000,
   7175.000000,
   7180.000000,
   7185.000000,
   7190.000000,
   7195.000000,
   7200.000000,
   7205.000000,
   7210.000000,
   7215.000000,
   7220.000000,
   7225.000000,
   7230.000000,
   7235.000000,
   7240.000000,
   7245.000000,
   7250.000000,
   7255.000000,
   7260.000000,
   7265.000000,
   7270.000000,
   7275.000000,
   7280.000000,
   7285.000000,
   7290.000000,
   7295.000000,
   7300.000000,
   7305.000000,
   7310.000000,
   7315.000000,
   7320.000000,
   7325.000000,
   7330.000000,
   7335.000000,
   7340.000000,
   7345.000000,
   7350.000000,
   7355.000000,
   7360.000000,
   7365.000000,
   7370.000000,
   7375.000000,
   7380.000000,
   7385.000000,
   7390.000000,
   7395.000000,
   7400.000000,
   7405.000000,
   7410.000000,
   7415.000000,
   7420.000000,
   7425.000000,
   7430.000000,
   7435.000000,
   7440.000000,
   7445.000000,
   7450.000000,
   7455.000000,
   7460.000000,
   7465.000000,
   7470.000000,
   7475.000000,
   7480.000000,
   7485.000000,
   7490.000000,
   7495.000000,
   7500.000000,
   7505.000000,
   7510.000000,
   7515.000000,
   7520.000000,
   7525.000000,
   7530.000000,
   7535.000000,
   7540.000000,
   7545.000000,
   7550.000000,
   7555.000000,
   7560.000000,
   7565.000000,
   7570.000000,
   7575.000000,
   7580.000000,
   7585.000000,
   7590.000000,
   7595.000000,
   7600.000000,
   7605.000000,
   7610.000000,
   7615.000000,
   7620.000000,
   7625.000000,
   7630.000000,
   7635.000000,
   7640.000000,
   7645.000000,
   7650.000000,
   7655.000000,
   7660.000000,
   7665.000000,
   7670.000000,
   7675.000000,
   7680.000000,
   7685.000000,
   7690.000000,
   7695.000000,
   7700.000000,
   7705.000000,
   7710.000000,
   7715.000000,
   7720.000000,
   7725.000000,
   7730.000000,
   7735.000000,
   7740.000000,
   7745.000000,
   7750.000000,
   7755.000000,
   7760.000000,
   7765.000000,
   7770.000000,
   7775.000000,
   7780.000000,
   7785.000000,
   7790.000000,
   7795.000000,
   7800.000000,
   7805.000000,
   7810.000000,
   7815.000000,
   7820.000000,
   7825.000000,
   7830.000000,
   7835.000000,
   7840.000000,
   7845.000000,
   7850.000000,
   7855.000000,
   7860.000000,
   7865.000000,
   7870.000000,
   7875.000000,
   7880.000000,
   7885.000000,
   7890.000000,
   7895.000000,
   7900.000000,
   7905.000000,
   7910.000000,
   7915.000000,
   7920.000000,
   7925.000000,
   7930.000000,
   7935.000000,
   7940.000000,
   7945.000000,
   7950.000000,
   7955.000000,
   7960.000000,
   7965.000000,
   7970.000000,
   7975.000000,
   7980.000000,
   7985.000000,
   7990.000000,
   7995.000000,
   8000.000000,
   8005.000000,
   8010.000000,
   8015.000000,
   8020.000000,
   8025.000000,
   8030.000000,
   8035.000000,
   8040.000000,
   8045.000000,
   8050.000000,
   8055.000000,
   8060.000000,
   8065.000000,
   8070.000000,
   8075.000000,
   8080.000000,
   8085.000000,
   8090.000000,
   8095.000000,
   8100.000000,
   8105.000000,
   8110.000000,
   8115.000000,
   8120.000000,
   8125.000000,
   8130.000000,
   8135.000000,
   8140.000000,
   8145.000000,
   8150.000000,
   8155.000000,
   8160.000000,
   8165.000000,
   8170.000000,
   8175.000000,
   8180.000000,
   8185.000000,
   8190.000000,
   8195.000000,
   8200.000000,
   8205.000000,
   8210.000000,
   8215.000000,
   8220.000000,
   8225.000000,
   8230.000000,
   8235.000000,
   8240.000000,
   8245.000000,
   8250.000000,
   8255.000000,
   8260.000000,
   8265.000000,
   8270.000000,
   8275.000000,
   8280.000000,
   8285.000000,
   8290.000000,
   8295.000000,
   8300.000000,
   8305.000000,
   8310.000000,
   8315.000000,
   8320.000000,
   8325.000000,
   8330.000000,
   8335.000000,
   8340.000000,
   8345.000000,
   8350.000000,
   8355.000000,
   8360.000000,
   8365.000000,
   8370.000000,
   8375.000000,
   8380.000000,
   8385.000000,
   8390.000000,
   8395.000000,
   8400.000000,
   8405.000000,
   8410.000000,
   8415.000000,
   8420.000000,
   8425.000000,
   8430.000000,
   8435.000000,
   8440.000000,
   8445.000000,
   8450.000000,
   8455.000000,
   8460.000000,
   8465.000000,
   8470.000000,
   8475.000000,
   8480.000000,
   8485.000000,
   8490.000000,
   8495.000000,
   8500.000000,
   8505.000000,
   8510.000000,
   8515.000000,
   8520.000000,
   8525.000000,
   8530.000000,
   8535.000000,
   8540.000000,
   8545.000000,
   8550.000000,
   8555.000000,
   8560.000000,
   8565.000000,
   8570.000000,
   8575.000000,
   8580.000000,
   8585.000000,
   8590.000000,
   8595.000000,
   8600.000000,
   8605.000000,
   8610.000000,
   8615.000000,
   8620.000000,
   8625.000000,
   8630.000000,
   8635.000000,
   8640.000000,
   8645.000000,
   8650.000000,
   8655.000000,
   8660.000000,
   8665.000000,
   8670.000000,
   8675.000000,
   8680.000000,
   8685.000000,
   8690.000000,
   8695.000000,
   8700.000000,
   8705.000000,
   8710.000000,
   8715.000000,
   8720.000000,
   8725.000000,
   8730.000000,
   8735.000000,
   8740.000000,
   8745.000000,
   8750.000000,
   8755.000000,
   8760.000000,
   8765.000000,
   8770.000000,
   8775.000000,
   8780.000000,
   8785.000000,
   8790.000000,
   8795.000000,
   8800.000000,
   8805.000000,
   8810.000000,
   8815.000000,
   8820.000000,
   8825.000000,
   8830.000000,
   8835.000000,
   8840.000000,
   8845.000000,
   8850.000000,
   8855.000000,
   8860.000000,
   8865.000000,
   8870.000000,
   8875.000000,
   8880.000000,
   8885.000000,
   8890.000000,
   8895.000000,
   8900.000000,
   8905.000000,
   8910.000000,
   8915.000000,
   8920.000000,
   8925.000000,
   8930.000000,
   8935.000000,
   8940.000000,
   8945.000000,
   8950.000000,
   8955.000000,
   8960.000000,
   8965.000000,
   8970.000000,
   8975.000000,
   8980.000000,
   8985.000000,
   8990.000000,
   8995.000000,
   9000.000000,
   9005.000000,
   9010.000000,
   9015.000000,
   9020.000000,
   9025.000000,
   9030.000000,
   9035.000000,
   9040.000000,
   9045.000000,
   9050.000000,
   9055.000000,
   9060.000000,
   9065.000000,
   9070.000000,
   9075.000000,
   9080.000000,
   9085.000000,
   9090.000000,
   9095.000000,
   9100.000000,
   9105.000000,
   9110.000000,
   9115.000000,
   9120.000000,
   9125.000000,
   9130.000000,
   9135.000000,
   9140.000000,
   9145.000000,
   9150.000000,
   9155.000000,
   9160.000000,
   9165.000000,
   9170.000000,
   9175.000000,
   9180.000000,
   9185.000000,
   9190.000000,
   9195.000000,
   9200.000000,
   9205.000000,
   9210.000000,
   9215.000000,
   9220.000000,
   9225.000000,
   9230.000000,
   9235.000000,
   9240.000000,
   9245.000000,
   9250.000000,
   9255.000000,
   9260.000000,
   9265.000000,
   9270.000000,
   9275.000000,
   9280.000000,
   9285.000000,
   9290.000000,
   9295.000000,
   9300.000000,
   9305.000000,
   9310.000000,
   9315.000000,
   9320.000000,
   9325.000000,
   9330.000000,
   9335.000000,
   9340.000000,
   9345.000000,
   9350.000000,
   9355.000000,
   9360.000000,
   9365.000000,
   9370.000000,
   9375.000000,
   9380.000000,
   9385.000000,
   9390.000000,
   9395.000000,
   9400.000000,
   9405.000000,
   9410.000000,
   9415.000000,
   9420.000000,
   9425.000000,
   9430.000000,
   9435.000000,
   9440.000000,
   9445.000000,
   9450.000000,
   9455.000000,
   9460.000000,
   9465.000000,
   9470.000000,
   9475.000000,
   9480.000000,
   9485.000000,
   9490.000000,
   9495.000000,
   9500.000000,
   9505.000000,
   9510.000000,
   9515.000000,
   9520.000000,
   9525.000000,
   9530.000000,
   9535.000000,
   9540.000000,
   9545.000000,
   9550.000000,
   9555.000000,
   9560.000000,
   9565.000000,
   9570.000000,
   9575.000000,
   9580.000000,
   9585.000000,
   9590.000000,
   9595.000000,
   9600.000000,
   9605.000000,
   9610.000000,
   9615.000000,
   9620.000000,
   9625.000000,
   9630.000000,
   9635.000000,
   9640.000000,
   9645.000000,
   9650.000000,
   9655.000000,
   9660.000000,
   9665.000000,
   9670.000000,
   9675.000000,
   9680.000000,
   9685.000000,
   9690.000000,
   9695.000000,
   9700.000000,
   9705.000000,
   9710.000000,
   9715.000000,
   9720.000000,
   9725.000000,
   9730.000000,
   9735.000000,
   9740.000000,
   9745.000000,
   9750.000000,
   9755.000000,
   9760.000000,
   9765.000000,
   9770.000000,
   9775.000000,
   9780.000000,
   9785.000000,
   9790.000000,
   9795.000000,
   9800.000000,
   9805.000000,
   9810.000000,
   9815.000000,
   9820.000000,
   9825.000000,
   9830.000000,
   9835.000000,
   9840.000000,
   9845.000000,
   9850.000000,
   9855.000000,
   9860.000000,
   9865.000000,
   9870.000000,
   9875.000000,
   9880.000000,
   9885.000000,
   9890.000000,
   9895.000000,
   9900.000000,
   9905.000000,
   9910.000000,
   9915.000000,
   9920.000000,
   9925.000000,
   9930.000000,
   9935.000000,
   9940.000000,
   9945.000000,
   9950.000000,
   9955.000000,
   9960.000000,
   9965.000000,
   9970.000000,
   9975.000000,
   9980.000000,
   9985.000000,
   9990.000000,
   9995.000000,
   10000.000000,
   10005.000000,
   10010.000000,
   10015.000000,
   10020.000000,
   10025.000000,
   10030.000000,
   10035.000000,
   10040.000000,
   10045.000000,
   10050.000000,
   10055.000000,
   10060.000000,
   10065.000000,
   10070.000000,
   10075.000000,
   10080.000000,
   10085.000000,
   10090.000000,
   10095.000000,
   10100.000000,
   10105.000000,
   10110.000000,
   10115.000000,
   10120.000000,
   10125.000000,
   10130.000000,
   10135.000000,
   10140.000000,
   10145.000000,
   10150.000000,
   10155.000000,
   10160.000000,
   10165.000000,
   10170.000000,
   10175.000000,
   10180.000000,
   10185.000000,
   10190.000000,
   10195.000000,
   10200.000000,
   10205.000000,
   10210.000000,
   10215.000000,
   10220.000000,
   10225.000000,
   10230.000000,
   10235.000000,
   10240.000000,
   10245.000000,
   10250.000000,
   10255.000000,
   10260.000000,
   10265.000000,
   10270.000000,
   10275.000000,
   10280.000000,
   10285.000000,
   10290.000000,
   10295.000000,
   10300.000000,
   10305.000000,
   10310.000000,
   10315.000000,
   10320.000000,
   10325.000000,
   10330.000000,
   10335.000000,
   10340.000000,
   10345.000000,
   10350.000000,
   10355.000000,
   10360.000000,
   10365.000000,
   10370.000000,
   10375.000000,
   10380.000000,
   10385.000000,
   10390.000000,
   10395.000000,
   10400.000000,
   10405.000000,
   10410.000000,
   10415.000000,
   10420.000000,
   10425.000000,
   10430.000000,
   10435.000000,
   10440.000000,
   10445.000000,
   10450.000000,
   10455.000000,
   10460.000000,
   10465.000000,
   10470.000000,
   10475.000000,
   10480.000000,
   10485.000000,
   10490.000000,
   10495.000000,
   10500.000000,
   10505.000000,
   10510.000000,
   10515.000000,
   10520.000000,
   10525.000000,
   10530.000000,
   10535.000000,
   10540.000000,
   10545.000000,
   10550.000000,
   10555.000000,
   10560.000000,
   10565.000000,
   10570.000000,
   10575.000000,
   10580.000000,
   10585.000000,
   10590.000000,
   10595.000000,
   10600.000000,
   10605.000000,
   10610.000000,
   10615.000000,
   10620.000000
};

static double _g5ii_flux[] = {
   0.000000,
   0.000000,
   0.000000,
   0.000000,
   0.000000,
   0.000000,
   0.000000,
   0.000000,
   0.000000,
   0.000000,
   0.000000,
   0.000000,
   0.000000,
   0.000000,
   0.000000,
   0.000000,
   0.000000,
   0.000000,
   0.000000,
   0.000000,
   0.000000,
   0.000000,
   0.000000,
   0.000000,
   0.000000,
   0.000000,
   0.000000,
   0.000000,
   0.000000,
   0.000000,
   0.000000,
   0.000000,
   0.000000,
   0.000000,
   0.000000,
   0.000000,
   0.000000,
   0.000000,
   0.000000,
   0.000000,
   0.000000,
   0.000000,
   0.000000,
   0.000000,
   0.000000,
   0.000000,
   0.000000,
   0.000000,
   0.000000,
   0.000000,
   0.000000,
   0.000000,
   0.000000,
   0.000000,
   0.000000,
   0.000000,
   0.000000,
   0.000000,
   0.000000,
   0.000000,
   0.000000,
   0.000000,
   0.000000,
   0.000000,
   0.000000,
   0.000000,
   0.000000,
   0.000000,
   0.000000,
   0.000000,
   0.000000,
   0.000000,
   0.000000,
   0.000000,
   0.000000,
   0.000000,
   0.000000,
   0.000000,
   0.000000,
   0.000000,
   0.000000,
   0.000000,
   0.000000,
   0.000000,
   0.000000,
   0.000000,
   0.000000,
   0.000000,
   0.000000,
   0.000000,
   0.000000,
   0.000000,
   0.000000,
   0.000000,
   0.000000,
   0.000000,
   0.000000,
   0.000000,
   0.000000,
   0.000000,
   0.000000,
   0.000000,
   0.000000,
   0.000000,
   0.000000,
   0.000000,
   0.000000,
   0.000000,
   0.000000,
   0.000000,
   0.000000,
   0.000000,
   0.000000,
   0.000000,
   0.000000,
   0.000000,
   0.000000,
   0.000000,
   0.000000,
   0.000000,
   0.000000,
   0.000000,
   0.000000,
   0.000000,
   0.000000,
   0.000000,
   0.000000,
   0.000000,
   0.000000,
   0.000000,
   0.000000,
   0.000000,
   0.000000,
   0.000000,
   0.000000,
   0.000000,
   0.000000,
   0.000000,
   0.000000,
   0.000000,
   0.000000,
   0.000001,
   0.000002,
   0.000002,
   0.000003,
   0.000004,
   0.000004,
   0.000004,
   0.000003,
   0.000002,
   0.000000,
   0.000000,
   0.000000,
   0.000000,
   0.000000,
   0.000000,
   0.000000,
   0.000000,
   0.000000,
   0.000000,
   0.000000,
   0.000010,
   0.000022,
   0.000034,
   0.000045,
   0.000053,
   0.000057,
   0.000055,
   0.000046,
   0.000028,
   0.000000,
   0.000000,
   0.000000,
   0.000000,
   0.000000,
   0.000000,
   0.000000,
   0.000000,
   0.000000,
   0.000000,
   0.000000,
   0.000145,
   0.000325,
   0.000531,
   0.000755,
   0.000988,
   0.001222,
   0.001449,
   0.001659,
   0.001845,
   0.001997,
   0.002111,
   0.002187,
   0.002230,
   0.002246,
   0.002238,
   0.002210,
   0.002168,
   0.002115,
   0.002057,
   0.001997,
   0.001940,
   0.001889,
   0.001846,
   0.001814,
   0.001796,
   0.001793,
   0.001810,
   0.001847,
   0.001909,
   0.001997,
   0.002114,
   0.002257,
   0.002423,
   0.002610,
   0.002814,
   0.003033,
   0.003263,
   0.003502,
   0.003747,
   0.003995,
   0.004242,
   0.004487,
   0.004726,
   0.004956,
   0.005175,
   0.005379,
   0.005566,
   0.005732,
   0.005875,
   0.005992,
   0.006081,
   0.006143,
   0.006182,
   0.006199,
   0.006197,
   0.006179,
   0.006147,
   0.006103,
   0.006051,
   0.005992,
   0.005931,
   0.005877,
   0.005840,
   0.005832,
   0.005864,
   0.005946,
   0.006089,
   0.006303,
   0.006600,
   0.006991,
   0.007479,
   0.008044,
   0.008657,
   0.009291,
   0.009919,
   0.010512,
   0.011043,
   0.011484,
   0.011807,
   0.011984,
   0.012000,
   0.011882,
   0.011672,
   0.011409,
   0.011135,
   0.010888,
   0.010709,
   0.010639,
   0.010718,
   0.010985,
   0.011466,
   0.012121,
   0.012895,
   0.013731,
   0.014576,
   0.015373,
   0.016066,
   0.016602,
   0.016924,
   0.016977,
   0.016732,
   0.016259,
   0.015656,
   0.015021,
   0.014451,
   0.014043,
   0.013894,
   0.014103,
   0.014765,
   0.015979,
   0.017804,
   0.020154,
   0.022905,
   0.025931,
   0.029110,
   0.032317,
   0.035428,
   0.038319,
   0.040865,
   0.042943,
   0.044460,
   0.045455,
   0.045996,
   0.046153,
   0.045997,
   0.045596,
   0.045021,
   0.044340,
   0.043624,
   0.042943,
   0.042352,
   0.041854,
   0.041439,
   0.041096,
   0.040814,
   0.040582,
   0.040390,
   0.040228,
   0.040083,
   0.039947,
   0.039810,
   0.039680,
   0.039565,
   0.039475,
   0.039417,
   0.039402,
   0.039438,
   0.039535,
   0.039702,
   0.039947,
   0.040291,
   0.040799,
   0.041547,
   0.042612,
   0.044070,
   0.045996,
   0.048469,
   0.051562,
   0.055354,
   0.059920,
   0.065295,
   0.071351,
   0.077916,
   0.084821,
   0.091894,
   0.098967,
   0.105867,
   0.112426,
   0.118472,
   0.123835,
   0.128375,
   0.132074,
   0.134944,
   0.136997,
   0.138244,
   0.138699,
   0.138371,
   0.137275,
   0.135422,
   0.132823,
   0.129529,
   0.125745,
   0.121711,
   0.117671,
   0.113867,
   0.110540,
   0.107934,
   0.106290,
   0.105850,
   0.106858,
   0.109464,
   0.113461,
   0.118552,
   0.124439,
   0.130823,
   0.137407,
   0.143894,
   0.149984,
   0.155381,
   0.159787,
   0.162983,
   0.165073,
   0.166237,
   0.166659,
   0.166519,
   0.166001,
   0.165286,
   0.164556,
   0.163994,
   0.163782,
   0.164059,
   0.164804,
   0.165950,
   0.167432,
   0.169187,
   0.171148,
   0.173251,
   0.175430,
   0.177622,
   0.179760,
   0.181788,
   0.183680,
   0.185418,
   0.186983,
   0.188358,
   0.189525,
   0.190465,
   0.191160,
   0.191592,
   0.191744,
   0.191625,
   0.216690,
   0.217488,
   0.213885,
   0.198116,
   0.182611,
   0.200252,
   0.227353,
   0.231730,
   0.236609,
   0.267633,
   0.304697,
   0.321854,
   0.315543,
   0.291769,
   0.272397,
   0.277191,
   0.301616,
   0.331647,
   0.339579,
   0.307386,
   0.269429,
   0.261602,
   0.273538,
   0.285115,
   0.283472,
   0.264844,
   0.254626,
   0.272557,
   0.286600,
   0.265544,
   0.233256,
   0.220089,
   0.227243,
   0.246513,
   0.261225,
   0.261061,
   0.269602,
   0.305372,
   0.332774,
   0.318416,
   0.291847,
   0.288691,
   0.305915,
   0.328299,
   0.330515,
   0.298122,
   0.270333,
   0.282830,
   0.303496,
   0.298004,
   0.290986,
   0.308386,
   0.322451,
   0.305039,
   0.280140,
   0.276798,
   0.292142,
   0.314868,
   0.331875,
   0.333960,
   0.256768,
   0.263830,
   0.253649,
   0.238433,
   0.253954,
   0.276499,
   0.295070,
   0.271844,
   0.259441,
   0.252781,
   0.241371,
   0.209164,
   0.202992,
   0.199494,
   0.177765,
   0.174223,
   0.209435,
   0.283250,
   0.311451,
   0.280376,
   0.253205,
   0.262127,
   0.278636,
   0.315889,
   0.318212,
   0.318670,
   0.328031,
   0.308551,
   0.307496,
   0.365455,
   0.392533,
   0.381856,
   0.372885,
   0.372903,
   0.362460,
   0.354475,
   0.359493,
   0.384672,
   0.399230,
   0.358323,
   0.360258,
   0.374628,
   0.345165,
   0.355769,
   0.332057,
   0.299400,
   0.304799,
   0.284939,
   0.299461,
   0.334817,
   0.327525,
   0.336054,
   0.361999,
   0.394155,
   0.409491,
   0.376686,
   0.321300,
   0.296240,
   0.314675,
   0.341499,
   0.343154,
   0.287161,
   0.237789,
   0.213814,
   0.205784,
   0.209085,
   0.220165,
   0.237641,
   0.240233,
   0.230643,
   0.219665,
   0.221751,
   0.225327,
   0.239564,
   0.260570,
   0.308239,
   0.365005,
   0.405099,
   0.412718,
   0.402162,
   0.407251,
   0.401995,
   0.356053,
   0.275311,
   0.176870,
   0.158134,
   0.217536,
   0.307850,
   0.395567,
   0.421101,
   0.357580,
   0.223274,
   0.179577,
   0.300411,
   0.449599,
   0.523188,
   0.549077,
   0.563968,
   0.580282,
   0.581582,
   0.606889,
   0.635310,
   0.642723,
   0.635710,
   0.613839,
   0.628968,
   0.639405,
   0.606565,
   0.608092,
   0.578975,
   0.568521,
   0.589277,
   0.602903,
   0.584171,
   0.606400,
   0.657235,
   0.682918,
   0.641589,
   0.593970,
   0.615725,
   0.649800,
   0.655561,
   0.635879,
   0.609190,
   0.585958,
   0.602838,
   0.611432,
   0.596083,
   0.579688,
   0.582283,
   0.605510,
   0.615830,
   0.592254,
   0.553500,
   0.556968,
   0.599689,
   0.614114,
   0.577639,
   0.562682,
   0.606395,
   0.644338,
   0.666411,
   0.680969,
   0.624151,
   0.641566,
   0.644749,
   0.669748,
   0.687158,
   0.671540,
   0.668095,
   0.665168,
   0.680084,
   0.650943,
   0.662184,
   0.671792,
   0.647213,
   0.614027,
   0.576196,
   0.511250,
   0.469902,
   0.506773,
   0.669099,
   0.763458,
   0.741987,
   0.743112,
   0.714898,
   0.677190,
   0.732617,
   0.758747,
   0.779226,
   0.808048,
   0.818146,
   0.790261,
   0.770264,
   0.725054,
   0.671840,
   0.683396,
   0.721565,
   0.744266,
   0.738952,
   0.771815,
   0.780002,
   0.791963,
   0.793024,
   0.789153,
   0.782787,
   0.795820,
   0.819089,
   0.828275,
   0.776422,
   0.738235,
   0.772496,
   0.824486,
   0.878776,
   0.889046,
   0.898011,
   0.874363,
   0.867268,
   0.912024,
   0.961847,
   0.963246,
   0.930861,
   0.899186,
   0.836114,
   0.809844,
   0.846954,
   0.865764,
   0.856127,
   0.841085,
   0.867172,
   0.895731,
   0.905918,
   0.912605,
   0.900942,
   0.880788,
   0.887478,
   0.891722,
   0.876694,
   0.887442,
   0.924514,
   0.953143,
   0.961732,
   0.972902,
   0.975126,
   0.966534,
   0.936863,
   0.915864,
   0.881082,
   0.897343,
   0.924911,
   0.935541,
   0.871844,
   0.861711,
   0.900726,
   0.922019,
   0.936267,
   0.930655,
   0.921658,
   0.900618,
   0.889409,
   0.892833,
   0.939612,
   0.974545,
   0.939476,
   0.898212,
   0.917957,
   0.948881,
   0.973405,
   0.981995,
   0.963619,
   0.941773,
   0.924979,
   0.960664,
   1.006717,
   1.020035,
   0.984137,
   0.967579,
   0.988152,
   0.998467,
   0.982523,
   0.972504,
   0.997830,
   1.008938,
   0.993649,
   0.972472,
   0.961303,
   0.965806,
   0.985163,
   0.972400,
   0.897974,
   0.828283,
   0.851210,
   0.896755,
   0.931774,
   0.952254,
   0.924328,
   0.913561,
   0.986631,
   1.025134,
   1.022390,
   0.980493,
   0.952690,
   0.922451,
   0.955647,
   1.010500,
   0.981924,
   0.963384,
   1.011599,
   1.040575,
   1.023013,
   1.008309,
   1.006076,
   1.001044,
   1.001375,
   0.961405,
   0.932097,
   0.952875,
   0.968176,
   0.939063,
   0.905226,
   0.903483,
   0.883862,
   0.899889,
   0.932195,
   0.968476,
   0.949652,
   0.888452,
   0.922947,
   0.965150,
   0.997900,
   1.026451,
   0.991291,
   0.950934,
   0.933030,
   0.913553,
   0.943809,
   0.987987,
   0.980991,
   0.935288,
   0.932606,
   0.935974,
   0.976192,
   0.970794,
   0.921861,
   0.909901,
   0.924283,
   0.911039,
   0.900381,
   0.900636,
   0.935731,
   0.949474,
   0.839146,
   0.757222,
   0.820255,
   0.890352,
   0.883587,
   0.896515,
   0.905710,
   0.925630,
   0.901561,
   0.900738,
   0.943390,
   0.954233,
   0.905868,
   0.908209,
   0.951987,
   0.994854,
   0.974466,
   0.936055,
   0.956700,
   0.952735,
   0.863433,
   0.831941,
   0.895840,
   0.969439,
   1.007126,
   1.037513,
   0.987322,
   0.959111,
   1.012195,
   1.040484,
   1.031525,
   0.998775,
   0.941293,
   0.926097,
   0.978853,
   0.990470,
   0.992720,
   1.006793,
   1.054155,
   1.062194,
   1.018741,
   0.975866,
   1.005645,
   1.029661,
   1.024354,
   0.994834,
   0.956549,
   0.946065,
   0.920887,
   0.936641,
   0.990342,
   1.006556,
   0.999785,
   0.980747,
   0.984355,
   1.027625,
   1.012479,
   1.002456,
   0.997716,
   1.011333,
   1.008420,
   0.998450,
   0.962412,
   0.948931,
   0.981269,
   1.004202,
   1.008507,
   1.006606,
   0.991557,
   0.989050,
   0.996922,
   1.023548,
   1.016179,
   0.996618,
   1.005256,
   1.023510,
   1.030293,
   1.035351,
   1.029410,
   1.017468,
   0.999168,
   0.994108,
   1.008970,
   1.015747,
   0.984732,
   0.939929,
   0.944271,
   0.969555,
   1.007263,
   1.048203,
   1.015824,
   0.980073,
   0.984584,
   1.007270,
   1.007936,
   0.982497,
   0.983737,
   0.999213,
   0.976335,
   0.943647,
   0.960293,
   0.990901,
   1.019966,
   1.018039,
   0.992371,
   0.986526,
   0.997770,
   0.984513,
   0.946328,
   0.926154,
   0.967843,
   1.026644,
   1.036706,
   1.025266,
   1.025088,
   1.024271,
   1.015889,
   0.999738,
   0.989683,
   1.007859,
   1.024369,
   1.036892,
   1.020600,
   0.987318,
   0.956842,
   0.984730,
   1.007434,
   1.020779,
   1.014084,
   1.014080,
   1.026510,
   1.044109,
   1.044791,
   1.042845,
   1.041769,
   1.049003,
   1.037486,
   1.015105,
   0.994157,
   0.999772,
   1.017913,
   1.037734,
   1.039001,
   1.016586,
   0.966638,
   0.898242,
   0.911269,
   0.974393,
   1.013357,
   1.019902,
   1.012986,
   1.020240,
   1.021686,
   1.017669,
   1.016165,
   1.014538,
   1.008371,
   1.001474,
   1.002377,
   1.015638,
   1.018935,
   1.018435,
   1.007552,
   0.997918,
   0.995303,
   0.997324,
   0.996885,
   0.985484,
   0.974560,
   0.964288,
   0.959304,
   0.957988,
   0.975301,
   0.986695,
   0.994325,
   0.993852,
   0.992086,
   0.992722,
   0.985462,
   0.981807,
   0.984776,
   0.993495,
   0.981623,
   0.967789,
   0.964324,
   0.963556,
   0.963601,
   0.960017,
   0.959340,
   0.970347,
   0.966616,
   0.960428,
   0.959321,
   0.955422,
   0.930696,
   0.915421,
   0.934836,
   0.947571,
   0.936360,
   0.910622,
   0.907135,
   0.924586,
   0.939111,
   0.954706,
   0.950167,
   0.942719,
   0.951539,
   0.965912,
   0.971680,
   0.960083,
   0.942134,
   0.935661,
   0.935459,
   0.926651,
   0.930789,
   0.925665,
   0.913720,
   0.913071,
   0.911888,
   0.917592,
   0.939164,
   0.945746,
   0.924781,
   0.901537,
   0.927040,
   0.939586,
   0.923281,
   0.907020,
   0.920823,
   0.928360,
   0.908515,
   0.903825,
   0.926662,
   0.937347,
   0.923230,
   0.914962,
   0.928416,
   0.938272,
   0.926591,
   0.912563,
   0.919358,
   0.936640,
   0.943449,
   0.941592,
   0.938541,
   0.932486,
   0.925961,
   0.923829,
   0.924147,
   0.919418,
   0.918607,
   0.916624,
   0.924225,
   0.925119,
   0.926778,
   0.932354,
   0.934373,
   0.920883,
   0.914437,
   0.912932,
   0.917495,
   0.921804,
   0.919648,
   0.914741,
   0.915379,
   0.903822,
   0.867770,
   0.875124,
   0.918180,
   0.936377,
   0.923877,
   0.913581,
   0.918028,
   0.919630,
   0.925540,
   0.928666,
   0.930721,
   0.908079,
   0.846253,
   0.764682,
   0.778437,
   0.874759,
   0.907628,
   0.914523,
   0.908352,
   0.903941,
   0.906335,
   0.917904,
   0.911067,
   0.908966,
   0.925788,
   0.931002,
   0.921226,
   0.906326,
   0.899544,
   0.905373,
   0.909326,
   0.916983,
   0.914731,
   0.906137,
   0.903493,
   0.909546,
   0.902368,
   0.898906,
   0.911676,
   0.915926,
   0.907406,
   0.899751,
   0.896326,
   0.897276,
   0.888166,
   0.885559,
   0.893473,
   0.897109,
   0.893870,
   0.887255,
   0.883997,
   0.881895,
   0.888975,
   0.895493,
   0.887154,
   0.877670,
   0.886367,
   0.889699,
   0.884463,
   0.884370,
   0.879999,
   0.882600,
   0.878228,
   0.876477,
   0.880161,
   0.882364,
   0.882065,
   0.875393,
   0.874201,
   0.874330,
   0.873996,
   0.873237,
   0.872734,
   0.872214,
   0.871819,
   0.871348,
   0.870919,
   0.870546,
   0.870187,
   0.869849,
   0.869386,
   0.868901,
   0.868386,
   0.867794,
   0.867469,
   0.867322,
   0.866771,
   0.866236,
   0.865643,
   0.865279,
   0.865106,
   0.864452,
   0.863554,
   0.863695,
   0.865337,
   0.863581,
   0.842390,
   0.829771,
   0.840690,
   0.843321,
   0.841667,
   0.833425,
   0.830702,
   0.832275,
   0.817907,
   0.818375,
   0.821637,
   0.837571,
   0.839086,
   0.838686,
   0.844485,
   0.842848,
   0.840619,
   0.837530,
   0.830878,
   0.831402,
   0.839631,
   0.840260,
   0.829645,
   0.825985,
   0.828979,
   0.833566,
   0.832403,
   0.824575,
   0.821926,
   0.819639,
   0.819896,
   0.820017,
   0.831459,
   0.838511,
   0.826711,
   0.817849,
   0.825544,
   0.824968,
   0.801064,
   0.784485,
   0.771353,
   0.757372,
   0.730716,
   0.722114,
   0.737696,
   0.748404,
   0.761628,
   0.786910,
   0.801984,
   0.804065,
   0.804750,
   0.802818,
   0.781366,
   0.778169,
   0.776243,
   0.778493,
   0.781534,
   0.785473,
   0.783252,
   0.790167,
   0.772938,
   0.769014,
   0.760417,
   0.740360,
   0.767033,
   0.785782,
   0.771304,
   0.767128,
   0.774851,
   0.783364,
   0.783863,
   0.785248,
   0.799182,
   0.809949,
   0.801956,
   0.789241,
   0.778927,
   0.781456,
   0.783617,
   0.789759,
   0.793124,
   0.790051,
   0.770984,
   0.760905,
   0.771384,
   0.778847,
   0.774618,
   0.762343,
   0.757585,
   0.761539,
   0.771413,
   0.785237,
   0.786030,
   0.779555,
   0.770730,
   0.773435,
   0.777550,
   0.775917,
   0.779695,
   0.785197,
   0.777841,
   0.773662,
   0.774356,
   0.772445,
   0.769476,
   0.774045,
   0.767117,
   0.760008,
   0.765596,
   0.771987,
   0.765077,
   0.765354,
   0.772382,
   0.779160,
   0.775388,
   0.771635,
   0.770333,
   0.770375,
   0.770121,
   0.769411,
   0.768707,
   0.768237,
   0.767795,
   0.767192,
   0.766674,
   0.766294,
   0.765976,
   0.765571,
   0.765162,
   0.764755,
   0.764349,
   0.763945,
   0.763542,
   0.763140,
   0.762738,
   0.762337,
   0.761935,
   0.761533,
   0.761133,
   0.760687,
   0.760140,
   0.759570,
   0.759233,
   0.759034,
   0.758554,
   0.757886,
   0.757153,
   0.756749,
   0.756646,
   0.756050,
   0.754636,
   0.756443,
   0.761163,
   0.760409,
   0.744051,
   0.734731,
   0.746742,
   0.758361,
   0.760218,
   0.750866,
   0.742902,
   0.742291,
   0.745688,
   0.747482,
   0.745701,
   0.739356,
   0.740828,
   0.741300,
   0.748778,
   0.753343,
   0.751298,
   0.744996,
   0.740187,
   0.742403,
   0.744672,
   0.742468,
   0.741174,
   0.744303,
   0.744483,
   0.742836,
   0.735601,
   0.732694,
   0.736788,
   0.738498,
   0.729508,
   0.725516,
   0.726563,
   0.723616,
   0.716188,
   0.711941,
   0.712024,
   0.712445,
   0.711268,
   0.710466,
   0.704014,
   0.709551,
   0.715420,
   0.714711,
   0.717574,
   0.718410,
   0.720459,
   0.720728,
   0.721234,
   0.720016,
   0.708955,
   0.699134,
   0.704930,
   0.709438,
   0.714637,
   0.712608,
   0.698731,
   0.693599,
   0.704815,
   0.709240,
   0.694943,
   0.687697,
   0.697903,
   0.708075,
   0.705730,
   0.696987,
   0.694253,
   0.693495,
   0.690421,
   0.689189,
   0.684491,
   0.685635,
   0.692662,
   0.693103,
   0.689758,
   0.688539,
   0.689628,
   0.684898,
   0.673903,
   0.669059,
   0.659501,
   0.651592,
   0.651482,
   0.646790,
   0.631286,
   0.638572,
   0.640298,
   0.634887,
   0.641546,
   0.640289,
   0.629851,
   0.630517,
   0.663906,
   0.678706,
   0.677124,
   0.656222,
   0.615697,
   0.584607,
   0.620740,
   0.656690,
   0.667394,
   0.669365,
   0.657072,
   0.657175,
   0.670386,
   0.669214,
   0.647674,
   0.639194,
   0.641251,
   0.641653,
   0.642382,
   0.644323,
   0.639682,
   0.643189,
   0.646657,
   0.641826,
   0.644955,
   0.639724,
   0.632585,
   0.631429,
   0.642206,
   0.652883,
   0.654839,
   0.651493,
   0.649564,
   0.651854,
   0.652748,
   0.652059,
   0.643025,
   0.639126,
   0.648247,
   0.655539,
   0.657301,
   0.653760,
   0.651351,
   0.651058,
   0.647114,
   0.645269,
   0.635836,
   0.634567,
   0.637813,
   0.644677,
   0.655212,
   0.653946,
   0.644992,
   0.635593,
   0.642575,
   0.650773,
   0.655788,
   0.641639,
   0.589996,
   0.552347,
   0.592111,
   0.621752,
   0.618485,
   0.612223,
   0.612186,
   0.608523,
   0.584089,
   0.519823,
   0.479469,
   0.505533,
   0.552311,
   0.601653,
   0.616098,
   0.611068,
   0.608636,
   0.607701,
   0.602975,
   0.600512,
   0.594204,
   0.594292,
   0.605341,
   0.610881,
   0.613846,
   0.615539,
   0.619084,
   0.625394,
   0.631011,
   0.631801,
   0.625951,
   0.618510,
   0.609286,
   0.556694,
   0.514493,
   0.519792,
   0.557967,
   0.605269,
   0.614808,
   0.606141,
   0.605890,
   0.607910,
   0.609415,
   0.602735,
   0.598297,
   0.596808,
   0.592211,
   0.589212,
   0.589370,
   0.588934,
   0.586748,
   0.581460,
   0.573658,
   0.569634,
   0.569156,
   0.571995,
   0.576773,
   0.585009,
   0.595311,
   0.601388,
   0.598169,
   0.615787,
   0.608159,
   0.611025,
   0.616436,
   0.615829,
   0.613266,
   0.614955,
   0.613874,
   0.611512,
   0.612757,
   0.611106,
   0.608231,
   0.600333,
   0.596750,
   0.599081,
   0.602495,
   0.602512,
   0.603154,
   0.602159,
   0.600436,
   0.601162,
   0.601624,
   0.600302,
   0.599746,
   0.598522,
   0.595960,
   0.595158,
   0.599274,
   0.599868,
   0.594072,
   0.592813,
   0.591993,
   0.590920,
   0.581213,
   0.581922,
   0.580122,
   0.582115,
   0.569992,
   0.552093,
   0.574641,
   0.567983,
   0.565687,
   0.563323,
   0.559725,
   0.568275,
   0.572109,
   0.585277,
   0.598513,
   0.598231,
   0.596462,
   0.593253,
   0.588051,
   0.572896,
   0.567017,
   0.558274,
   0.552589,
   0.546887,
   0.546098,
   0.542089,
   0.544834,
   0.544592,
   0.546740,
   0.552609,
   0.551639,
   0.550798,
   0.556349,
   0.538882,
   0.532213,
   0.543939,
   0.545384,
   0.532302,
   0.523580,
   0.536317,
   0.540248,
   0.531084,
   0.522322,
   0.535724,
   0.541698,
   0.546081,
   0.541079,
   0.549015,
   0.547587,
   0.538860,
   0.533982,
   0.539968,
   0.540258,
   0.532509,
   0.533775,
   0.537042,
   0.537522,
   0.541166,
   0.544870,
   0.546719,
   0.556232,
   0.559692,
   0.556908,
   0.539501,
   0.546703,
   0.546307,
   0.535296,
   0.531159,
   0.526401,
   0.519562,
   0.499799,
   0.486248,
   0.482700,
   0.488981,
   0.466836,
   0.457703,
   0.457220,
   0.493194,
   0.466771,
   0.485024,
   0.492846,
   0.471462,
   0.491086,
   0.485339,
   0.518869,
   0.548186,
   0.571640,
   0.554367,
   0.540334,
   0.523715,
   0.527402,
   0.524640,
   0.501147,
   0.486031,
   0.503310,
   0.466916,
   0.482068,
   0.505816,
   0.485029,
   0.477866,
   0.497742,
   0.511449,
   0.501166,
   0.485649,
   0.510679,
   0.519557,
   0.481405,
   0.476137,
   0.514859,
   0.533442,
   0.506915,
   0.479441,
   0.484061,
   0.501730,
   0.516534,
   0.505525,
   0.485528,
   0.494438,
   0.488097,
   0.492323,
   0.486544,
   0.500641,
   0.523453,
   0.497752,
   0.501032,
   0.483300,
   0.490238,
   0.499532,
   0.506129,
   0.508080,
   0.505426,
   0.492071,
   0.491838,
   0.504674,
   0.492691,
   0.491018,
   0.491686,
   0.495148,
   0.497070,
   0.489555,
   0.485082,
   0.498044,
   0.510112,
   0.508739,
   0.515365,
   0.513386,
   0.514603,
   0.510296,
   0.509946,
   0.518004,
   0.510921,
   0.507490,
   0.499042,
   0.502888,
   0.487016,
   0.482579,
   0.492662,
   0.494702,
   0.494174,
   0.489264,
   0.493747,
   0.502989,
   0.499433,
   0.499378,
   0.493821,
   0.490524,
   0.496652,
   0.500003,
   0.499961,
   0.499763,
   0.509714,
   0.499731,
   0.495072,
   0.495704,
   0.499774,
   0.506627,
   0.496291,
   0.499764,
   0.499949,
   0.495632,
   0.498828,
   0.502594,
   0.499890,
   0.490299,
   0.501189,
   0.495720,
   0.490345,
   0.494974,
   0.491813,
   0.502625,
   0.492426,
   0.495082,
   0.493990,
   0.489818,
   0.497028,
   0.496466,
   0.485496,
   0.487909,
   0.494702,
   0.492457,
   0.486288,
   0.490067,
   0.486639,
   0.499595,
   0.486184,
   0.489297,
   0.493878,
   0.486382,
   0.485881,
   0.488411,
   0.485200,
   0.481736,
   0.490506,
   0.492933,
   0.477131,
   0.479432,
   0.479399,
   0.470373,
   0.474129,
   0.476495,
   0.480178,
   0.479104,
   0.484251,
   0.485091,
   0.478834,
   0.484103,
   0.494658,
   0.486174,
   0.474858,
   0.484934,
   0.488781,
   0.479978,
   0.474848,
   0.478540,
   0.482872,
   0.469290,
   0.473508,
   0.475366,
   0.474987,
   0.474609,
   0.474230,
   0.473847,
   0.473459,
   0.473064,
   0.472660,
   0.472244,
   0.471816,
   0.471372,
   0.470911,
   0.470436,
   0.469948,
   0.469450,
   0.468944,
   0.468432,
   0.467918,
   0.467402,
   0.466888,
   0.466378,
   0.465874,
   0.465374,
   0.464878,
   0.464384,
   0.463891,
   0.463397,
   0.462900,
   0.462401,
   0.461896,
   0.461385,
   0.460867,
   0.460345,
   0.459821,
   0.459299,
   0.458783,
   0.458275,
   0.457779,
   0.457297,
   0.456834,
   0.456392,
   0.455973,
   0.455573,
   0.455186,
   0.454808,
   0.454432,
   0.454053,
   0.453665,
   0.453264,
   0.452843,
   0.452397,
   0.451922,
   0.451424,
   0.450909,
   0.450383,
   0.449855,
   0.449330,
   0.448816,
   0.448318,
   0.447845,
   0.447403,
   0.446998,
   0.446626,
   0.446284,
   0.445968,
   0.445675,
   0.445400,
   0.445140,
   0.444890,
   0.444647,
   0.444407,
   0.444167,
   0.443926,
   0.443685,
   0.443442,
   0.443198,
   0.442953,
   0.442708,
   0.442461,
   0.442214,
   0.441966,
   0.441717,
   0.441467,
   0.441216,
   0.440964,
   0.440711,
   0.440458,
   0.440203,
   0.439948,
   0.439692,
   0.439435,
   0.439177,
   0.438918,
   0.438658,
   0.438398
};

#endif
