#ifndef _G5V_H_
#define _G5V_H_

/* spectrum for g5v star           */
/* number of elements = 1895       */

static double _g5v_lambda[] = {
   1150.000000,
   1155.000000,
   1160.000000,
   1165.000000,
   1170.000000,
   1175.000000,
   1180.000000,
   1185.000000,
   1190.000000,
   1195.000000,
   1200.000000,
   1205.000000,
   1210.000000,
   1215.000000,
   1220.000000,
   1225.000000,
   1230.000000,
   1235.000000,
   1240.000000,
   1245.000000,
   1250.000000,
   1255.000000,
   1260.000000,
   1265.000000,
   1270.000000,
   1275.000000,
   1280.000000,
   1285.000000,
   1290.000000,
   1295.000000,
   1300.000000,
   1305.000000,
   1310.000000,
   1315.000000,
   1320.000000,
   1325.000000,
   1330.000000,
   1335.000000,
   1340.000000,
   1345.000000,
   1350.000000,
   1355.000000,
   1360.000000,
   1365.000000,
   1370.000000,
   1375.000000,
   1380.000000,
   1385.000000,
   1390.000000,
   1395.000000,
   1400.000000,
   1405.000000,
   1410.000000,
   1415.000000,
   1420.000000,
   1425.000000,
   1430.000000,
   1435.000000,
   1440.000000,
   1445.000000,
   1450.000000,
   1455.000000,
   1460.000000,
   1465.000000,
   1470.000000,
   1475.000000,
   1480.000000,
   1485.000000,
   1490.000000,
   1495.000000,
   1500.000000,
   1505.000000,
   1510.000000,
   1515.000000,
   1520.000000,
   1525.000000,
   1530.000000,
   1535.000000,
   1540.000000,
   1545.000000,
   1550.000000,
   1555.000000,
   1560.000000,
   1565.000000,
   1570.000000,
   1575.000000,
   1580.000000,
   1585.000000,
   1590.000000,
   1595.000000,
   1600.000000,
   1605.000000,
   1610.000000,
   1615.000000,
   1620.000000,
   1625.000000,
   1630.000000,
   1635.000000,
   1640.000000,
   1645.000000,
   1650.000000,
   1655.000000,
   1660.000000,
   1665.000000,
   1670.000000,
   1675.000000,
   1680.000000,
   1685.000000,
   1690.000000,
   1695.000000,
   1700.000000,
   1705.000000,
   1710.000000,
   1715.000000,
   1720.000000,
   1725.000000,
   1730.000000,
   1735.000000,
   1740.000000,
   1745.000000,
   1750.000000,
   1755.000000,
   1760.000000,
   1765.000000,
   1770.000000,
   1775.000000,
   1780.000000,
   1785.000000,
   1790.000000,
   1795.000000,
   1800.000000,
   1805.000000,
   1810.000000,
   1815.000000,
   1820.000000,
   1825.000000,
   1830.000000,
   1835.000000,
   1840.000000,
   1845.000000,
   1850.000000,
   1855.000000,
   1860.000000,
   1865.000000,
   1870.000000,
   1875.000000,
   1880.000000,
   1885.000000,
   1890.000000,
   1895.000000,
   1900.000000,
   1905.000000,
   1910.000000,
   1915.000000,
   1920.000000,
   1925.000000,
   1930.000000,
   1935.000000,
   1940.000000,
   1945.000000,
   1950.000000,
   1955.000000,
   1960.000000,
   1965.000000,
   1970.000000,
   1975.000000,
   1980.000000,
   1985.000000,
   1990.000000,
   1995.000000,
   2000.000000,
   2005.000000,
   2010.000000,
   2015.000000,
   2020.000000,
   2025.000000,
   2030.000000,
   2035.000000,
   2040.000000,
   2045.000000,
   2050.000000,
   2055.000000,
   2060.000000,
   2065.000000,
   2070.000000,
   2075.000000,
   2080.000000,
   2085.000000,
   2090.000000,
   2095.000000,
   2100.000000,
   2105.000000,
   2110.000000,
   2115.000000,
   2120.000000,
   2125.000000,
   2130.000000,
   2135.000000,
   2140.000000,
   2145.000000,
   2150.000000,
   2155.000000,
   2160.000000,
   2165.000000,
   2170.000000,
   2175.000000,
   2180.000000,
   2185.000000,
   2190.000000,
   2195.000000,
   2200.000000,
   2205.000000,
   2210.000000,
   2215.000000,
   2220.000000,
   2225.000000,
   2230.000000,
   2235.000000,
   2240.000000,
   2245.000000,
   2250.000000,
   2255.000000,
   2260.000000,
   2265.000000,
   2270.000000,
   2275.000000,
   2280.000000,
   2285.000000,
   2290.000000,
   2295.000000,
   2300.000000,
   2305.000000,
   2310.000000,
   2315.000000,
   2320.000000,
   2325.000000,
   2330.000000,
   2335.000000,
   2340.000000,
   2345.000000,
   2350.000000,
   2355.000000,
   2360.000000,
   2365.000000,
   2370.000000,
   2375.000000,
   2380.000000,
   2385.000000,
   2390.000000,
   2395.000000,
   2400.000000,
   2405.000000,
   2410.000000,
   2415.000000,
   2420.000000,
   2425.000000,
   2430.000000,
   2435.000000,
   2440.000000,
   2445.000000,
   2450.000000,
   2455.000000,
   2460.000000,
   2465.000000,
   2470.000000,
   2475.000000,
   2480.000000,
   2485.000000,
   2490.000000,
   2495.000000,
   2500.000000,
   2505.000000,
   2510.000000,
   2515.000000,
   2520.000000,
   2525.000000,
   2530.000000,
   2535.000000,
   2540.000000,
   2545.000000,
   2550.000000,
   2555.000000,
   2560.000000,
   2565.000000,
   2570.000000,
   2575.000000,
   2580.000000,
   2585.000000,
   2590.000000,
   2595.000000,
   2600.000000,
   2605.000000,
   2610.000000,
   2615.000000,
   2620.000000,
   2625.000000,
   2630.000000,
   2635.000000,
   2640.000000,
   2645.000000,
   2650.000000,
   2655.000000,
   2660.000000,
   2665.000000,
   2670.000000,
   2675.000000,
   2680.000000,
   2685.000000,
   2690.000000,
   2695.000000,
   2700.000000,
   2705.000000,
   2710.000000,
   2715.000000,
   2720.000000,
   2725.000000,
   2730.000000,
   2735.000000,
   2740.000000,
   2745.000000,
   2750.000000,
   2755.000000,
   2760.000000,
   2765.000000,
   2770.000000,
   2775.000000,
   2780.000000,
   2785.000000,
   2790.000000,
   2795.000000,
   2800.000000,
   2805.000000,
   2810.000000,
   2815.000000,
   2820.000000,
   2825.000000,
   2830.000000,
   2835.000000,
   2840.000000,
   2845.000000,
   2850.000000,
   2855.000000,
   2860.000000,
   2865.000000,
   2870.000000,
   2875.000000,
   2880.000000,
   2885.000000,
   2890.000000,
   2895.000000,
   2900.000000,
   2905.000000,
   2910.000000,
   2915.000000,
   2920.000000,
   2925.000000,
   2930.000000,
   2935.000000,
   2940.000000,
   2945.000000,
   2950.000000,
   2955.000000,
   2960.000000,
   2965.000000,
   2970.000000,
   2975.000000,
   2980.000000,
   2985.000000,
   2990.000000,
   2995.000000,
   3000.000000,
   3005.000000,
   3010.000000,
   3015.000000,
   3020.000000,
   3025.000000,
   3030.000000,
   3035.000000,
   3040.000000,
   3045.000000,
   3050.000000,
   3055.000000,
   3060.000000,
   3065.000000,
   3070.000000,
   3075.000000,
   3080.000000,
   3085.000000,
   3090.000000,
   3095.000000,
   3100.000000,
   3105.000000,
   3110.000000,
   3115.000000,
   3120.000000,
   3125.000000,
   3130.000000,
   3135.000000,
   3140.000000,
   3145.000000,
   3150.000000,
   3155.000000,
   3160.000000,
   3165.000000,
   3170.000000,
   3175.000000,
   3180.000000,
   3185.000000,
   3190.000000,
   3195.000000,
   3200.000000,
   3205.000000,
   3210.000000,
   3215.000000,
   3220.000000,
   3225.000000,
   3230.000000,
   3235.000000,
   3240.000000,
   3245.000000,
   3250.000000,
   3255.000000,
   3260.000000,
   3265.000000,
   3270.000000,
   3275.000000,
   3280.000000,
   3285.000000,
   3290.000000,
   3295.000000,
   3300.000000,
   3305.000000,
   3310.000000,
   3315.000000,
   3320.000000,
   3325.000000,
   3330.000000,
   3335.000000,
   3340.000000,
   3345.000000,
   3350.000000,
   3355.000000,
   3360.000000,
   3365.000000,
   3370.000000,
   3375.000000,
   3380.000000,
   3385.000000,
   3390.000000,
   3395.000000,
   3400.000000,
   3405.000000,
   3410.000000,
   3415.000000,
   3420.000000,
   3425.000000,
   3430.000000,
   3435.000000,
   3440.000000,
   3445.000000,
   3450.000000,
   3455.000000,
   3460.000000,
   3465.000000,
   3470.000000,
   3475.000000,
   3480.000000,
   3485.000000,
   3490.000000,
   3495.000000,
   3500.000000,
   3505.000000,
   3510.000000,
   3515.000000,
   3520.000000,
   3525.000000,
   3530.000000,
   3535.000000,
   3540.000000,
   3545.000000,
   3550.000000,
   3555.000000,
   3560.000000,
   3565.000000,
   3570.000000,
   3575.000000,
   3580.000000,
   3585.000000,
   3590.000000,
   3595.000000,
   3600.000000,
   3605.000000,
   3610.000000,
   3615.000000,
   3620.000000,
   3625.000000,
   3630.000000,
   3635.000000,
   3640.000000,
   3645.000000,
   3650.000000,
   3655.000000,
   3660.000000,
   3665.000000,
   3670.000000,
   3675.000000,
   3680.000000,
   3685.000000,
   3690.000000,
   3695.000000,
   3700.000000,
   3705.000000,
   3710.000000,
   3715.000000,
   3720.000000,
   3725.000000,
   3730.000000,
   3735.000000,
   3740.000000,
   3745.000000,
   3750.000000,
   3755.000000,
   3760.000000,
   3765.000000,
   3770.000000,
   3775.000000,
   3780.000000,
   3785.000000,
   3790.000000,
   3795.000000,
   3800.000000,
   3805.000000,
   3810.000000,
   3815.000000,
   3820.000000,
   3825.000000,
   3830.000000,
   3835.000000,
   3840.000000,
   3845.000000,
   3850.000000,
   3855.000000,
   3860.000000,
   3865.000000,
   3870.000000,
   3875.000000,
   3880.000000,
   3885.000000,
   3890.000000,
   3895.000000,
   3900.000000,
   3905.000000,
   3910.000000,
   3915.000000,
   3920.000000,
   3925.000000,
   3930.000000,
   3935.000000,
   3940.000000,
   3945.000000,
   3950.000000,
   3955.000000,
   3960.000000,
   3965.000000,
   3970.000000,
   3975.000000,
   3980.000000,
   3985.000000,
   3990.000000,
   3995.000000,
   4000.000000,
   4005.000000,
   4010.000000,
   4015.000000,
   4020.000000,
   4025.000000,
   4030.000000,
   4035.000000,
   4040.000000,
   4045.000000,
   4050.000000,
   4055.000000,
   4060.000000,
   4065.000000,
   4070.000000,
   4075.000000,
   4080.000000,
   4085.000000,
   4090.000000,
   4095.000000,
   4100.000000,
   4105.000000,
   4110.000000,
   4115.000000,
   4120.000000,
   4125.000000,
   4130.000000,
   4135.000000,
   4140.000000,
   4145.000000,
   4150.000000,
   4155.000000,
   4160.000000,
   4165.000000,
   4170.000000,
   4175.000000,
   4180.000000,
   4185.000000,
   4190.000000,
   4195.000000,
   4200.000000,
   4205.000000,
   4210.000000,
   4215.000000,
   4220.000000,
   4225.000000,
   4230.000000,
   4235.000000,
   4240.000000,
   4245.000000,
   4250.000000,
   4255.000000,
   4260.000000,
   4265.000000,
   4270.000000,
   4275.000000,
   4280.000000,
   4285.000000,
   4290.000000,
   4295.000000,
   4300.000000,
   4305.000000,
   4310.000000,
   4315.000000,
   4320.000000,
   4325.000000,
   4330.000000,
   4335.000000,
   4340.000000,
   4345.000000,
   4350.000000,
   4355.000000,
   4360.000000,
   4365.000000,
   4370.000000,
   4375.000000,
   4380.000000,
   4385.000000,
   4390.000000,
   4395.000000,
   4400.000000,
   4405.000000,
   4410.000000,
   4415.000000,
   4420.000000,
   4425.000000,
   4430.000000,
   4435.000000,
   4440.000000,
   4445.000000,
   4450.000000,
   4455.000000,
   4460.000000,
   4465.000000,
   4470.000000,
   4475.000000,
   4480.000000,
   4485.000000,
   4490.000000,
   4495.000000,
   4500.000000,
   4505.000000,
   4510.000000,
   4515.000000,
   4520.000000,
   4525.000000,
   4530.000000,
   4535.000000,
   4540.000000,
   4545.000000,
   4550.000000,
   4555.000000,
   4560.000000,
   4565.000000,
   4570.000000,
   4575.000000,
   4580.000000,
   4585.000000,
   4590.000000,
   4595.000000,
   4600.000000,
   4605.000000,
   4610.000000,
   4615.000000,
   4620.000000,
   4625.000000,
   4630.000000,
   4635.000000,
   4640.000000,
   4645.000000,
   4650.000000,
   4655.000000,
   4660.000000,
   4665.000000,
   4670.000000,
   4675.000000,
   4680.000000,
   4685.000000,
   4690.000000,
   4695.000000,
   4700.000000,
   4705.000000,
   4710.000000,
   4715.000000,
   4720.000000,
   4725.000000,
   4730.000000,
   4735.000000,
   4740.000000,
   4745.000000,
   4750.000000,
   4755.000000,
   4760.000000,
   4765.000000,
   4770.000000,
   4775.000000,
   4780.000000,
   4785.000000,
   4790.000000,
   4795.000000,
   4800.000000,
   4805.000000,
   4810.000000,
   4815.000000,
   4820.000000,
   4825.000000,
   4830.000000,
   4835.000000,
   4840.000000,
   4845.000000,
   4850.000000,
   4855.000000,
   4860.000000,
   4865.000000,
   4870.000000,
   4875.000000,
   4880.000000,
   4885.000000,
   4890.000000,
   4895.000000,
   4900.000000,
   4905.000000,
   4910.000000,
   4915.000000,
   4920.000000,
   4925.000000,
   4930.000000,
   4935.000000,
   4940.000000,
   4945.000000,
   4950.000000,
   4955.000000,
   4960.000000,
   4965.000000,
   4970.000000,
   4975.000000,
   4980.000000,
   4985.000000,
   4990.000000,
   4995.000000,
   5000.000000,
   5005.000000,
   5010.000000,
   5015.000000,
   5020.000000,
   5025.000000,
   5030.000000,
   5035.000000,
   5040.000000,
   5045.000000,
   5050.000000,
   5055.000000,
   5060.000000,
   5065.000000,
   5070.000000,
   5075.000000,
   5080.000000,
   5085.000000,
   5090.000000,
   5095.000000,
   5100.000000,
   5105.000000,
   5110.000000,
   5115.000000,
   5120.000000,
   5125.000000,
   5130.000000,
   5135.000000,
   5140.000000,
   5145.000000,
   5150.000000,
   5155.000000,
   5160.000000,
   5165.000000,
   5170.000000,
   5175.000000,
   5180.000000,
   5185.000000,
   5190.000000,
   5195.000000,
   5200.000000,
   5205.000000,
   5210.000000,
   5215.000000,
   5220.000000,
   5225.000000,
   5230.000000,
   5235.000000,
   5240.000000,
   5245.000000,
   5250.000000,
   5255.000000,
   5260.000000,
   5265.000000,
   5270.000000,
   5275.000000,
   5280.000000,
   5285.000000,
   5290.000000,
   5295.000000,
   5300.000000,
   5305.000000,
   5310.000000,
   5315.000000,
   5320.000000,
   5325.000000,
   5330.000000,
   5335.000000,
   5340.000000,
   5345.000000,
   5350.000000,
   5355.000000,
   5360.000000,
   5365.000000,
   5370.000000,
   5375.000000,
   5380.000000,
   5385.000000,
   5390.000000,
   5395.000000,
   5400.000000,
   5405.000000,
   5410.000000,
   5415.000000,
   5420.000000,
   5425.000000,
   5430.000000,
   5435.000000,
   5440.000000,
   5445.000000,
   5450.000000,
   5455.000000,
   5460.000000,
   5465.000000,
   5470.000000,
   5475.000000,
   5480.000000,
   5485.000000,
   5490.000000,
   5495.000000,
   5500.000000,
   5505.000000,
   5510.000000,
   5515.000000,
   5520.000000,
   5525.000000,
   5530.000000,
   5535.000000,
   5540.000000,
   5545.000000,
   5550.000000,
   5555.000000,
   5560.000000,
   5565.000000,
   5570.000000,
   5575.000000,
   5580.000000,
   5585.000000,
   5590.000000,
   5595.000000,
   5600.000000,
   5605.000000,
   5610.000000,
   5615.000000,
   5620.000000,
   5625.000000,
   5630.000000,
   5635.000000,
   5640.000000,
   5645.000000,
   5650.000000,
   5655.000000,
   5660.000000,
   5665.000000,
   5670.000000,
   5675.000000,
   5680.000000,
   5685.000000,
   5690.000000,
   5695.000000,
   5700.000000,
   5705.000000,
   5710.000000,
   5715.000000,
   5720.000000,
   5725.000000,
   5730.000000,
   5735.000000,
   5740.000000,
   5745.000000,
   5750.000000,
   5755.000000,
   5760.000000,
   5765.000000,
   5770.000000,
   5775.000000,
   5780.000000,
   5785.000000,
   5790.000000,
   5795.000000,
   5800.000000,
   5805.000000,
   5810.000000,
   5815.000000,
   5820.000000,
   5825.000000,
   5830.000000,
   5835.000000,
   5840.000000,
   5845.000000,
   5850.000000,
   5855.000000,
   5860.000000,
   5865.000000,
   5870.000000,
   5875.000000,
   5880.000000,
   5885.000000,
   5890.000000,
   5895.000000,
   5900.000000,
   5905.000000,
   5910.000000,
   5915.000000,
   5920.000000,
   5925.000000,
   5930.000000,
   5935.000000,
   5940.000000,
   5945.000000,
   5950.000000,
   5955.000000,
   5960.000000,
   5965.000000,
   5970.000000,
   5975.000000,
   5980.000000,
   5985.000000,
   5990.000000,
   5995.000000,
   6000.000000,
   6005.000000,
   6010.000000,
   6015.000000,
   6020.000000,
   6025.000000,
   6030.000000,
   6035.000000,
   6040.000000,
   6045.000000,
   6050.000000,
   6055.000000,
   6060.000000,
   6065.000000,
   6070.000000,
   6075.000000,
   6080.000000,
   6085.000000,
   6090.000000,
   6095.000000,
   6100.000000,
   6105.000000,
   6110.000000,
   6115.000000,
   6120.000000,
   6125.000000,
   6130.000000,
   6135.000000,
   6140.000000,
   6145.000000,
   6150.000000,
   6155.000000,
   6160.000000,
   6165.000000,
   6170.000000,
   6175.000000,
   6180.000000,
   6185.000000,
   6190.000000,
   6195.000000,
   6200.000000,
   6205.000000,
   6210.000000,
   6215.000000,
   6220.000000,
   6225.000000,
   6230.000000,
   6235.000000,
   6240.000000,
   6245.000000,
   6250.000000,
   6255.000000,
   6260.000000,
   6265.000000,
   6270.000000,
   6275.000000,
   6280.000000,
   6285.000000,
   6290.000000,
   6295.000000,
   6300.000000,
   6305.000000,
   6310.000000,
   6315.000000,
   6320.000000,
   6325.000000,
   6330.000000,
   6335.000000,
   6340.000000,
   6345.000000,
   6350.000000,
   6355.000000,
   6360.000000,
   6365.000000,
   6370.000000,
   6375.000000,
   6380.000000,
   6385.000000,
   6390.000000,
   6395.000000,
   6400.000000,
   6405.000000,
   6410.000000,
   6415.000000,
   6420.000000,
   6425.000000,
   6430.000000,
   6435.000000,
   6440.000000,
   6445.000000,
   6450.000000,
   6455.000000,
   6460.000000,
   6465.000000,
   6470.000000,
   6475.000000,
   6480.000000,
   6485.000000,
   6490.000000,
   6495.000000,
   6500.000000,
   6505.000000,
   6510.000000,
   6515.000000,
   6520.000000,
   6525.000000,
   6530.000000,
   6535.000000,
   6540.000000,
   6545.000000,
   6550.000000,
   6555.000000,
   6560.000000,
   6565.000000,
   6570.000000,
   6575.000000,
   6580.000000,
   6585.000000,
   6590.000000,
   6595.000000,
   6600.000000,
   6605.000000,
   6610.000000,
   6615.000000,
   6620.000000,
   6625.000000,
   6630.000000,
   6635.000000,
   6640.000000,
   6645.000000,
   6650.000000,
   6655.000000,
   6660.000000,
   6665.000000,
   6670.000000,
   6675.000000,
   6680.000000,
   6685.000000,
   6690.000000,
   6695.000000,
   6700.000000,
   6705.000000,
   6710.000000,
   6715.000000,
   6720.000000,
   6725.000000,
   6730.000000,
   6735.000000,
   6740.000000,
   6745.000000,
   6750.000000,
   6755.000000,
   6760.000000,
   6765.000000,
   6770.000000,
   6775.000000,
   6780.000000,
   6785.000000,
   6790.000000,
   6795.000000,
   6800.000000,
   6805.000000,
   6810.000000,
   6815.000000,
   6820.000000,
   6825.000000,
   6830.000000,
   6835.000000,
   6840.000000,
   6845.000000,
   6850.000000,
   6855.000000,
   6860.000000,
   6865.000000,
   6870.000000,
   6875.000000,
   6880.000000,
   6885.000000,
   6890.000000,
   6895.000000,
   6900.000000,
   6905.000000,
   6910.000000,
   6915.000000,
   6920.000000,
   6925.000000,
   6930.000000,
   6935.000000,
   6940.000000,
   6945.000000,
   6950.000000,
   6955.000000,
   6960.000000,
   6965.000000,
   6970.000000,
   6975.000000,
   6980.000000,
   6985.000000,
   6990.000000,
   6995.000000,
   7000.000000,
   7005.000000,
   7010.000000,
   7015.000000,
   7020.000000,
   7025.000000,
   7030.000000,
   7035.000000,
   7040.000000,
   7045.000000,
   7050.000000,
   7055.000000,
   7060.000000,
   7065.000000,
   7070.000000,
   7075.000000,
   7080.000000,
   7085.000000,
   7090.000000,
   7095.000000,
   7100.000000,
   7105.000000,
   7110.000000,
   7115.000000,
   7120.000000,
   7125.000000,
   7130.000000,
   7135.000000,
   7140.000000,
   7145.000000,
   7150.000000,
   7155.000000,
   7160.000000,
   7165.000000,
   7170.000000,
   7175.000000,
   7180.000000,
   7185.000000,
   7190.000000,
   7195.000000,
   7200.000000,
   7205.000000,
   7210.000000,
   7215.000000,
   7220.000000,
   7225.000000,
   7230.000000,
   7235.000000,
   7240.000000,
   7245.000000,
   7250.000000,
   7255.000000,
   7260.000000,
   7265.000000,
   7270.000000,
   7275.000000,
   7280.000000,
   7285.000000,
   7290.000000,
   7295.000000,
   7300.000000,
   7305.000000,
   7310.000000,
   7315.000000,
   7320.000000,
   7325.000000,
   7330.000000,
   7335.000000,
   7340.000000,
   7345.000000,
   7350.000000,
   7355.000000,
   7360.000000,
   7365.000000,
   7370.000000,
   7375.000000,
   7380.000000,
   7385.000000,
   7390.000000,
   7395.000000,
   7400.000000,
   7405.000000,
   7410.000000,
   7415.000000,
   7420.000000,
   7425.000000,
   7430.000000,
   7435.000000,
   7440.000000,
   7445.000000,
   7450.000000,
   7455.000000,
   7460.000000,
   7465.000000,
   7470.000000,
   7475.000000,
   7480.000000,
   7485.000000,
   7490.000000,
   7495.000000,
   7500.000000,
   7505.000000,
   7510.000000,
   7515.000000,
   7520.000000,
   7525.000000,
   7530.000000,
   7535.000000,
   7540.000000,
   7545.000000,
   7550.000000,
   7555.000000,
   7560.000000,
   7565.000000,
   7570.000000,
   7575.000000,
   7580.000000,
   7585.000000,
   7590.000000,
   7595.000000,
   7600.000000,
   7605.000000,
   7610.000000,
   7615.000000,
   7620.000000,
   7625.000000,
   7630.000000,
   7635.000000,
   7640.000000,
   7645.000000,
   7650.000000,
   7655.000000,
   7660.000000,
   7665.000000,
   7670.000000,
   7675.000000,
   7680.000000,
   7685.000000,
   7690.000000,
   7695.000000,
   7700.000000,
   7705.000000,
   7710.000000,
   7715.000000,
   7720.000000,
   7725.000000,
   7730.000000,
   7735.000000,
   7740.000000,
   7745.000000,
   7750.000000,
   7755.000000,
   7760.000000,
   7765.000000,
   7770.000000,
   7775.000000,
   7780.000000,
   7785.000000,
   7790.000000,
   7795.000000,
   7800.000000,
   7805.000000,
   7810.000000,
   7815.000000,
   7820.000000,
   7825.000000,
   7830.000000,
   7835.000000,
   7840.000000,
   7845.000000,
   7850.000000,
   7855.000000,
   7860.000000,
   7865.000000,
   7870.000000,
   7875.000000,
   7880.000000,
   7885.000000,
   7890.000000,
   7895.000000,
   7900.000000,
   7905.000000,
   7910.000000,
   7915.000000,
   7920.000000,
   7925.000000,
   7930.000000,
   7935.000000,
   7940.000000,
   7945.000000,
   7950.000000,
   7955.000000,
   7960.000000,
   7965.000000,
   7970.000000,
   7975.000000,
   7980.000000,
   7985.000000,
   7990.000000,
   7995.000000,
   8000.000000,
   8005.000000,
   8010.000000,
   8015.000000,
   8020.000000,
   8025.000000,
   8030.000000,
   8035.000000,
   8040.000000,
   8045.000000,
   8050.000000,
   8055.000000,
   8060.000000,
   8065.000000,
   8070.000000,
   8075.000000,
   8080.000000,
   8085.000000,
   8090.000000,
   8095.000000,
   8100.000000,
   8105.000000,
   8110.000000,
   8115.000000,
   8120.000000,
   8125.000000,
   8130.000000,
   8135.000000,
   8140.000000,
   8145.000000,
   8150.000000,
   8155.000000,
   8160.000000,
   8165.000000,
   8170.000000,
   8175.000000,
   8180.000000,
   8185.000000,
   8190.000000,
   8195.000000,
   8200.000000,
   8205.000000,
   8210.000000,
   8215.000000,
   8220.000000,
   8225.000000,
   8230.000000,
   8235.000000,
   8240.000000,
   8245.000000,
   8250.000000,
   8255.000000,
   8260.000000,
   8265.000000,
   8270.000000,
   8275.000000,
   8280.000000,
   8285.000000,
   8290.000000,
   8295.000000,
   8300.000000,
   8305.000000,
   8310.000000,
   8315.000000,
   8320.000000,
   8325.000000,
   8330.000000,
   8335.000000,
   8340.000000,
   8345.000000,
   8350.000000,
   8355.000000,
   8360.000000,
   8365.000000,
   8370.000000,
   8375.000000,
   8380.000000,
   8385.000000,
   8390.000000,
   8395.000000,
   8400.000000,
   8405.000000,
   8410.000000,
   8415.000000,
   8420.000000,
   8425.000000,
   8430.000000,
   8435.000000,
   8440.000000,
   8445.000000,
   8450.000000,
   8455.000000,
   8460.000000,
   8465.000000,
   8470.000000,
   8475.000000,
   8480.000000,
   8485.000000,
   8490.000000,
   8495.000000,
   8500.000000,
   8505.000000,
   8510.000000,
   8515.000000,
   8520.000000,
   8525.000000,
   8530.000000,
   8535.000000,
   8540.000000,
   8545.000000,
   8550.000000,
   8555.000000,
   8560.000000,
   8565.000000,
   8570.000000,
   8575.000000,
   8580.000000,
   8585.000000,
   8590.000000,
   8595.000000,
   8600.000000,
   8605.000000,
   8610.000000,
   8615.000000,
   8620.000000,
   8625.000000,
   8630.000000,
   8635.000000,
   8640.000000,
   8645.000000,
   8650.000000,
   8655.000000,
   8660.000000,
   8665.000000,
   8670.000000,
   8675.000000,
   8680.000000,
   8685.000000,
   8690.000000,
   8695.000000,
   8700.000000,
   8705.000000,
   8710.000000,
   8715.000000,
   8720.000000,
   8725.000000,
   8730.000000,
   8735.000000,
   8740.000000,
   8745.000000,
   8750.000000,
   8755.000000,
   8760.000000,
   8765.000000,
   8770.000000,
   8775.000000,
   8780.000000,
   8785.000000,
   8790.000000,
   8795.000000,
   8800.000000,
   8805.000000,
   8810.000000,
   8815.000000,
   8820.000000,
   8825.000000,
   8830.000000,
   8835.000000,
   8840.000000,
   8845.000000,
   8850.000000,
   8855.000000,
   8860.000000,
   8865.000000,
   8870.000000,
   8875.000000,
   8880.000000,
   8885.000000,
   8890.000000,
   8895.000000,
   8900.000000,
   8905.000000,
   8910.000000,
   8915.000000,
   8920.000000,
   8925.000000,
   8930.000000,
   8935.000000,
   8940.000000,
   8945.000000,
   8950.000000,
   8955.000000,
   8960.000000,
   8965.000000,
   8970.000000,
   8975.000000,
   8980.000000,
   8985.000000,
   8990.000000,
   8995.000000,
   9000.000000,
   9005.000000,
   9010.000000,
   9015.000000,
   9020.000000,
   9025.000000,
   9030.000000,
   9035.000000,
   9040.000000,
   9045.000000,
   9050.000000,
   9055.000000,
   9060.000000,
   9065.000000,
   9070.000000,
   9075.000000,
   9080.000000,
   9085.000000,
   9090.000000,
   9095.000000,
   9100.000000,
   9105.000000,
   9110.000000,
   9115.000000,
   9120.000000,
   9125.000000,
   9130.000000,
   9135.000000,
   9140.000000,
   9145.000000,
   9150.000000,
   9155.000000,
   9160.000000,
   9165.000000,
   9170.000000,
   9175.000000,
   9180.000000,
   9185.000000,
   9190.000000,
   9195.000000,
   9200.000000,
   9205.000000,
   9210.000000,
   9215.000000,
   9220.000000,
   9225.000000,
   9230.000000,
   9235.000000,
   9240.000000,
   9245.000000,
   9250.000000,
   9255.000000,
   9260.000000,
   9265.000000,
   9270.000000,
   9275.000000,
   9280.000000,
   9285.000000,
   9290.000000,
   9295.000000,
   9300.000000,
   9305.000000,
   9310.000000,
   9315.000000,
   9320.000000,
   9325.000000,
   9330.000000,
   9335.000000,
   9340.000000,
   9345.000000,
   9350.000000,
   9355.000000,
   9360.000000,
   9365.000000,
   9370.000000,
   9375.000000,
   9380.000000,
   9385.000000,
   9390.000000,
   9395.000000,
   9400.000000,
   9405.000000,
   9410.000000,
   9415.000000,
   9420.000000,
   9425.000000,
   9430.000000,
   9435.000000,
   9440.000000,
   9445.000000,
   9450.000000,
   9455.000000,
   9460.000000,
   9465.000000,
   9470.000000,
   9475.000000,
   9480.000000,
   9485.000000,
   9490.000000,
   9495.000000,
   9500.000000,
   9505.000000,
   9510.000000,
   9515.000000,
   9520.000000,
   9525.000000,
   9530.000000,
   9535.000000,
   9540.000000,
   9545.000000,
   9550.000000,
   9555.000000,
   9560.000000,
   9565.000000,
   9570.000000,
   9575.000000,
   9580.000000,
   9585.000000,
   9590.000000,
   9595.000000,
   9600.000000,
   9605.000000,
   9610.000000,
   9615.000000,
   9620.000000,
   9625.000000,
   9630.000000,
   9635.000000,
   9640.000000,
   9645.000000,
   9650.000000,
   9655.000000,
   9660.000000,
   9665.000000,
   9670.000000,
   9675.000000,
   9680.000000,
   9685.000000,
   9690.000000,
   9695.000000,
   9700.000000,
   9705.000000,
   9710.000000,
   9715.000000,
   9720.000000,
   9725.000000,
   9730.000000,
   9735.000000,
   9740.000000,
   9745.000000,
   9750.000000,
   9755.000000,
   9760.000000,
   9765.000000,
   9770.000000,
   9775.000000,
   9780.000000,
   9785.000000,
   9790.000000,
   9795.000000,
   9800.000000,
   9805.000000,
   9810.000000,
   9815.000000,
   9820.000000,
   9825.000000,
   9830.000000,
   9835.000000,
   9840.000000,
   9845.000000,
   9850.000000,
   9855.000000,
   9860.000000,
   9865.000000,
   9870.000000,
   9875.000000,
   9880.000000,
   9885.000000,
   9890.000000,
   9895.000000,
   9900.000000,
   9905.000000,
   9910.000000,
   9915.000000,
   9920.000000,
   9925.000000,
   9930.000000,
   9935.000000,
   9940.000000,
   9945.000000,
   9950.000000,
   9955.000000,
   9960.000000,
   9965.000000,
   9970.000000,
   9975.000000,
   9980.000000,
   9985.000000,
   9990.000000,
   9995.000000,
   10000.000000,
   10005.000000,
   10010.000000,
   10015.000000,
   10020.000000,
   10025.000000,
   10030.000000,
   10035.000000,
   10040.000000,
   10045.000000,
   10050.000000,
   10055.000000,
   10060.000000,
   10065.000000,
   10070.000000,
   10075.000000,
   10080.000000,
   10085.000000,
   10090.000000,
   10095.000000,
   10100.000000,
   10105.000000,
   10110.000000,
   10115.000000,
   10120.000000,
   10125.000000,
   10130.000000,
   10135.000000,
   10140.000000,
   10145.000000,
   10150.000000,
   10155.000000,
   10160.000000,
   10165.000000,
   10170.000000,
   10175.000000,
   10180.000000,
   10185.000000,
   10190.000000,
   10195.000000,
   10200.000000,
   10205.000000,
   10210.000000,
   10215.000000,
   10220.000000,
   10225.000000,
   10230.000000,
   10235.000000,
   10240.000000,
   10245.000000,
   10250.000000,
   10255.000000,
   10260.000000,
   10265.000000,
   10270.000000,
   10275.000000,
   10280.000000,
   10285.000000,
   10290.000000,
   10295.000000,
   10300.000000,
   10305.000000,
   10310.000000,
   10315.000000,
   10320.000000,
   10325.000000,
   10330.000000,
   10335.000000,
   10340.000000,
   10345.000000,
   10350.000000,
   10355.000000,
   10360.000000,
   10365.000000,
   10370.000000,
   10375.000000,
   10380.000000,
   10385.000000,
   10390.000000,
   10395.000000,
   10400.000000,
   10405.000000,
   10410.000000,
   10415.000000,
   10420.000000,
   10425.000000,
   10430.000000,
   10435.000000,
   10440.000000,
   10445.000000,
   10450.000000,
   10455.000000,
   10460.000000,
   10465.000000,
   10470.000000,
   10475.000000,
   10480.000000,
   10485.000000,
   10490.000000,
   10495.000000,
   10500.000000,
   10505.000000,
   10510.000000,
   10515.000000,
   10520.000000,
   10525.000000,
   10530.000000,
   10535.000000,
   10540.000000,
   10545.000000,
   10550.000000,
   10555.000000,
   10560.000000,
   10565.000000,
   10570.000000,
   10575.000000,
   10580.000000,
   10585.000000,
   10590.000000,
   10595.000000,
   10600.000000,
   10605.000000,
   10610.000000,
   10615.000000,
   10620.000000
};

static double _g5v_flux[] = {
   0.003386,
   0.002432,
   0.001234,
   0.000788,
   0.000876,
   0.000854,
   0.000425,
   0.000363,
   0.000084,
   0.001137,
   0.004133,
   0.028503,
   0.078916,
   0.091386,
   0.041003,
   0.005986,
   0.000716,
   0.000489,
   0.000501,
   0.000393,
   0.000239,
   0.000134,
   0.000150,
   0.000146,
   0.000153,
   0.000239,
   0.000307,
   0.000254,
   0.000172,
   0.000196,
   0.000443,
   0.000597,
   0.000253,
   0.000122,
   0.000101,
   0.000150,
   0.000373,
   0.000748,
   0.000264,
   0.000058,
   0.000012,
   0.000129,
   0.000183,
   0.000164,
   0.000119,
   0.000146,
   0.000120,
   0.000108,
   0.000246,
   0.000419,
   0.000359,
   0.000395,
   0.000236,
   0.000127,
   0.000131,
   0.000217,
   0.000283,
   0.000181,
   0.000215,
   0.000314,
   0.000347,
   0.000303,
   0.000162,
   0.000277,
   0.000431,
   0.000299,
   0.000225,
   0.000465,
   0.000517,
   0.000489,
   0.000363,
   0.000296,
   0.000391,
   0.000333,
   0.000339,
   0.000348,
   0.000600,
   0.000558,
   0.000435,
   0.001056,
   0.001258,
   0.000509,
   0.000327,
   0.000350,
   0.000270,
   0.000374,
   0.000420,
   0.000343,
   0.000230,
   0.000259,
   0.000348,
   0.000345,
   0.000275,
   0.000287,
   0.000277,
   0.000394,
   0.000517,
   0.000660,
   0.000762,
   0.000427,
   0.000485,
   0.000945,
   0.000961,
   0.000576,
   0.000500,
   0.000432,
   0.000463,
   0.000480,
   0.000540,
   0.000595,
   0.000674,
   0.000734,
   0.000682,
   0.000723,
   0.000671,
   0.000670,
   0.000736,
   0.000797,
   0.000838,
   0.000910,
   0.001019,
   0.001114,
   0.001126,
   0.001075,
   0.001178,
   0.001218,
   0.001202,
   0.001131,
   0.000837,
   0.001170,
   0.001414,
   0.001839,
   0.002190,
   0.002583,
   0.002529,
   0.001884,
   0.001742,
   0.001819,
   0.001781,
   0.001607,
   0.001666,
   0.001801,
   0.001895,
   0.002163,
   0.002445,
   0.002317,
   0.002398,
   0.002460,
   0.002629,
   0.002650,
   0.002619,
   0.002650,
   0.002730,
   0.002821,
   0.002909,
   0.002862,
   0.002571,
   0.002692,
   0.003305,
   0.003664,
   0.004489,
   0.008526,
   0.006307,
   0.005917,
   0.008694,
   0.006101,
   0.007434,
   0.007610,
   0.005268,
   0.009817,
   0.008977,
   0.007119,
   0.005476,
   0.006159,
   0.008399,
   0.006360,
   0.005854,
   0.008801,
   0.011189,
   0.011544,
   0.012756,
   0.008982,
   0.009672,
   0.010517,
   0.013435,
   0.013418,
   0.013108,
   0.013256,
   0.009770,
   0.011903,
   0.018507,
   0.020693,
   0.014922,
   0.018359,
   0.021511,
   0.016434,
   0.014465,
   0.017537,
   0.020113,
   0.018565,
   0.021147,
   0.023041,
   0.019227,
   0.018464,
   0.013554,
   0.015007,
   0.019166,
   0.028026,
   0.033004,
   0.033598,
   0.029709,
   0.023371,
   0.020642,
   0.020171,
   0.025212,
   0.026920,
   0.022857,
   0.025955,
   0.028616,
   0.032965,
   0.032376,
   0.026305,
   0.022601,
   0.020451,
   0.021761,
   0.019190,
   0.026324,
   0.026785,
   0.023385,
   0.026388,
   0.027974,
   0.031936,
   0.032693,
   0.030139,
   0.028291,
   0.034974,
   0.032393,
   0.026424,
   0.026576,
   0.023913,
   0.024197,
   0.027670,
   0.029896,
   0.032778,
   0.037670,
   0.037540,
   0.029221,
   0.024895,
   0.026098,
   0.026897,
   0.020325,
   0.023121,
   0.022248,
   0.024908,
   0.033207,
   0.037874,
   0.032948,
   0.032080,
   0.034034,
   0.032431,
   0.030967,
   0.035821,
   0.031469,
   0.028116,
   0.029488,
   0.029409,
   0.025906,
   0.021923,
   0.024502,
   0.029453,
   0.034347,
   0.033009,
   0.030658,
   0.029257,
   0.028990,
   0.028660,
   0.032699,
   0.031460,
   0.031762,
   0.034534,
   0.037384,
   0.039710,
   0.044977,
   0.053830,
   0.051889,
   0.046883,
   0.056277,
   0.061710,
   0.060299,
   0.055097,
   0.052459,
   0.052687,
   0.051075,
   0.052387,
   0.053126,
   0.056049,
   0.060523,
   0.076681,
   0.101154,
   0.108174,
   0.104751,
   0.111304,
   0.116292,
   0.110502,
   0.110242,
   0.112677,
   0.112362,
   0.107777,
   0.105758,
   0.107947,
   0.120456,
   0.119606,
   0.112691,
   0.102452,
   0.086735,
   0.087631,
   0.099248,
   0.091256,
   0.069914,
   0.065188,
   0.069989,
   0.084190,
   0.100493,
   0.110414,
   0.113408,
   0.110549,
   0.093481,
   0.077256,
   0.067773,
   0.061573,
   0.059310,
   0.062927,
   0.079994,
   0.113465,
   0.128644,
   0.137018,
   0.147558,
   0.146842,
   0.132913,
   0.113446,
   0.088133,
   0.087334,
   0.124779,
   0.154245,
   0.161761,
   0.158707,
   0.143122,
   0.154251,
   0.186831,
   0.222036,
   0.265604,
   0.294514,
   0.298259,
   0.284907,
   0.257356,
   0.246612,
   0.256434,
   0.254571,
   0.238128,
   0.232933,
   0.238386,
   0.261427,
   0.262299,
   0.236709,
   0.215031,
   0.238911,
   0.234699,
   0.201381,
   0.216512,
   0.213190,
   0.192364,
   0.186111,
   0.198393,
   0.205163,
   0.197293,
   0.225995,
   0.266395,
   0.269042,
   0.256655,
   0.260510,
   0.270472,
   0.258566,
   0.244171,
   0.255186,
   0.269582,
   0.275997,
   0.280212,
   0.274211,
   0.259278,
   0.244303,
   0.261771,
   0.320750,
   0.346896,
   0.311096,
   0.298821,
   0.315384,
   0.336131,
   0.348017,
   0.335313,
   0.297349,
   0.319066,
   0.306723,
   0.254660,
   0.278508,
   0.313909,
   0.330629,
   0.309646,
   0.293801,
   0.303311,
   0.304204,
   0.292702,
   0.295665,
   0.288407,
   0.278643,
   0.268278,
   0.259103,
   0.258282,
   0.271104,
   0.290005,
   0.307088,
   0.325990,
   0.350627,
   0.374511,
   0.389332,
   0.389896,
   0.376917,
   0.371631,
   0.391610,
   0.419253,
   0.432915,
   0.429936,
   0.414669,
   0.400514,
   0.397987,
   0.397016,
   0.387494,
   0.379759,
   0.384837,
   0.396040,
   0.403554,
   0.402766,
   0.392208,
   0.377790,
   0.367303,
   0.368685,
   0.385840,
   0.406412,
   0.417979,
   0.424115,
   0.430126,
   0.432261,
   0.427469,
   0.424571,
   0.431121,
   0.437734,
   0.433214,
   0.416065,
   0.390278,
   0.372082,
   0.375420,
   0.392859,
   0.412058,
   0.422410,
   0.417606,
   0.406777,
   0.400105,
   0.396517,
   0.394176,
   0.399420,
   0.417845,
   0.443906,
   0.468004,
   0.452975,
   0.464855,
   0.442014,
   0.429689,
   0.487678,
   0.522392,
   0.528410,
   0.532130,
   0.520827,
   0.477754,
   0.456572,
   0.412484,
   0.391492,
   0.394166,
   0.363176,
   0.365704,
   0.431383,
   0.491936,
   0.502058,
   0.444913,
   0.425137,
   0.424149,
   0.451029,
   0.542445,
   0.484635,
   0.480196,
   0.529951,
   0.474807,
   0.509522,
   0.625897,
   0.635087,
   0.588457,
   0.598586,
   0.594509,
   0.540397,
   0.529629,
   0.571241,
   0.620410,
   0.630368,
   0.520973,
   0.538600,
   0.588791,
   0.479304,
   0.513412,
   0.489832,
   0.383781,
   0.438882,
   0.411908,
   0.416762,
   0.532040,
   0.491729,
   0.500570,
   0.571179,
   0.651598,
   0.698796,
   0.661979,
   0.576761,
   0.528043,
   0.565098,
   0.637960,
   0.639782,
   0.533520,
   0.446786,
   0.375553,
   0.342589,
   0.325299,
   0.390568,
   0.518216,
   0.536922,
   0.496902,
   0.467175,
   0.537154,
   0.499915,
   0.502732,
   0.499194,
   0.475553,
   0.509875,
   0.595964,
   0.595432,
   0.594276,
   0.650641,
   0.652812,
   0.579023,
   0.471200,
   0.337703,
   0.288152,
   0.370961,
   0.478525,
   0.577042,
   0.605280,
   0.534769,
   0.411635,
   0.373458,
   0.491209,
   0.625900,
   0.716475,
   0.792461,
   0.828249,
   0.840898,
   0.843147,
   0.866640,
   0.889515,
   0.903170,
   0.900373,
   0.859303,
   0.850784,
   0.854548,
   0.818972,
   0.854215,
   0.836134,
   0.802101,
   0.789570,
   0.803693,
   0.824623,
   0.858612,
   0.907607,
   0.921100,
   0.879099,
   0.811903,
   0.827658,
   0.877185,
   0.909794,
   0.915654,
   0.905125,
   0.879607,
   0.880947,
   0.880841,
   0.872019,
   0.888649,
   0.891075,
   0.915795,
   0.924555,
   0.897744,
   0.871970,
   0.871989,
   0.860047,
   0.860672,
   0.855291,
   0.845420,
   0.883052,
   0.923513,
   0.925928,
   0.904599,
   0.833209,
   0.839289,
   0.838246,
   0.850680,
   0.874097,
   0.864624,
   0.877501,
   0.873003,
   0.866747,
   0.816398,
   0.810356,
   0.841793,
   0.836705,
   0.812066,
   0.762555,
   0.678326,
   0.635510,
   0.641548,
   0.767064,
   0.858400,
   0.845344,
   0.904314,
   0.905090,
   0.845142,
   0.876937,
   0.907018,
   0.930861,
   0.965259,
   0.988472,
   0.957937,
   0.913365,
   0.873368,
   0.826303,
   0.863078,
   0.895479,
   0.911942,
   0.906815,
   0.954223,
   0.973239,
   0.986536,
   0.994714,
   0.993066,
   0.989904,
   1.015969,
   1.016689,
   1.009915,
   0.972977,
   0.959453,
   0.990673,
   1.012722,
   1.047064,
   1.049422,
   1.067364,
   1.069397,
   1.072485,
   1.097559,
   1.128323,
   1.132538,
   1.115062,
   1.096836,
   1.051546,
   1.017725,
   1.034218,
   1.058806,
   1.050022,
   1.045099,
   1.069264,
   1.098372,
   1.100526,
   1.114548,
   1.117507,
   1.089501,
   1.066538,
   1.062557,
   1.057895,
   1.068932,
   1.095295,
   1.120164,
   1.128648,
   1.137752,
   1.130914,
   1.116280,
   1.093191,
   1.083234,
   1.087261,
   1.082975,
   1.080570,
   1.081215,
   1.046252,
   1.033437,
   1.055141,
   1.056722,
   1.067424,
   1.066786,
   1.058327,
   1.029810,
   1.010283,
   1.017944,
   1.045520,
   1.083019,
   1.090837,
   1.063209,
   1.052069,
   1.060632,
   1.087114,
   1.097967,
   1.098969,
   1.085411,
   1.048959,
   1.055846,
   1.084164,
   1.100619,
   1.095500,
   1.104860,
   1.118893,
   1.103111,
   1.095107,
   1.098487,
   1.105153,
   1.101800,
   1.087620,
   1.072811,
   1.071438,
   1.072430,
   1.071204,
   1.055670,
   1.012270,
   0.939377,
   0.920268,
   0.955449,
   0.981216,
   1.024300,
   1.038197,
   1.023050,
   1.054501,
   1.080557,
   1.065268,
   1.064105,
   1.053182,
   1.026667,
   1.025497,
   1.059957,
   1.056987,
   1.054401,
   1.075797,
   1.079803,
   1.078751,
   1.059262,
   1.084066,
   1.082386,
   1.084206,
   1.066161,
   1.023451,
   1.035151,
   1.044147,
   1.012990,
   0.983458,
   0.997649,
   0.998632,
   0.993711,
   1.012820,
   1.024769,
   1.031205,
   1.004966,
   1.004493,
   1.030009,
   1.037631,
   1.059769,
   1.057252,
   1.031446,
   1.032719,
   1.019990,
   1.025625,
   1.053122,
   1.057954,
   1.028772,
   1.030398,
   1.032828,
   1.053817,
   1.059601,
   1.038704,
   1.023076,
   1.016650,
   0.998961,
   0.988649,
   0.994916,
   1.002016,
   0.989286,
   0.930022,
   0.850093,
   0.849072,
   0.896991,
   0.874782,
   0.912281,
   0.943136,
   0.970918,
   0.978998,
   0.983675,
   1.003185,
   1.019329,
   1.009254,
   0.986090,
   1.011223,
   1.038044,
   1.051354,
   1.054514,
   1.045251,
   1.027597,
   0.962293,
   0.919521,
   0.954173,
   1.000316,
   1.015481,
   1.053763,
   1.052766,
   1.029413,
   1.038128,
   1.055170,
   1.059500,
   1.053281,
   1.012586,
   0.977226,
   1.009501,
   1.015648,
   1.024449,
   1.040151,
   1.060536,
   1.070339,
   1.041714,
   1.006866,
   1.021857,
   1.036131,
   1.037098,
   1.041470,
   1.010250,
   0.990886,
   0.971512,
   0.970002,
   0.996623,
   1.015995,
   1.014136,
   1.011173,
   1.009963,
   1.021174,
   1.015107,
   1.016702,
   1.028997,
   1.036165,
   1.024334,
   1.020904,
   1.007085,
   0.995648,
   1.016380,
   1.022584,
   1.025631,
   1.022892,
   1.016618,
   1.016639,
   1.008410,
   1.016103,
   1.020360,
   1.004222,
   1.007078,
   1.009486,
   1.013308,
   1.028184,
   1.036036,
   1.025041,
   1.008164,
   0.988359,
   0.980567,
   0.986976,
   0.982803,
   0.957116,
   0.963371,
   0.966984,
   0.970641,
   0.998677,
   0.993835,
   0.976632,
   0.985386,
   0.993390,
   1.006128,
   0.999161,
   1.000518,
   0.999925,
   0.991111,
   0.973625,
   0.974333,
   0.984260,
   0.988102,
   0.986732,
   0.969552,
   0.958650,
   0.962644,
   0.971591,
   0.966654,
   0.949011,
   0.948463,
   0.976436,
   0.993202,
   0.998750,
   0.995889,
   0.995292,
   0.989813,
   0.979508,
   0.973664,
   0.974554,
   0.977460,
   0.985779,
   0.984188,
   0.983016,
   0.964312,
   0.961482,
   0.961836,
   0.961677,
   0.970768,
   0.974140,
   0.987069,
   0.999683,
   1.000751,
   0.993739,
   0.996893,
   1.000137,
   0.999425,
   0.998034,
   0.982698,
   0.966634,
   0.974817,
   0.985563,
   0.991005,
   0.973053,
   0.936378,
   0.881683,
   0.854280,
   0.891685,
   0.948058,
   0.962703,
   0.967457,
   0.966658,
   0.967083,
   0.954111,
   0.954169,
   0.954643,
   0.953910,
   0.946775,
   0.946080,
   0.947762,
   0.952398,
   0.953739,
   0.952320,
   0.941695,
   0.941834,
   0.944600,
   0.946946,
   0.942658,
   0.936677,
   0.931962,
   0.928250,
   0.917488,
   0.924887,
   0.941869,
   0.961056,
   0.960928,
   0.958291,
   0.954535,
   0.944231,
   0.942481,
   0.938100,
   0.943420,
   0.943766,
   0.934119,
   0.930318,
   0.921822,
   0.911159,
   0.904445,
   0.902734,
   0.922403,
   0.938468,
   0.920409,
   0.910654,
   0.910667,
   0.893654,
   0.886410,
   0.902032,
   0.912984,
   0.909168,
   0.889070,
   0.874223,
   0.877639,
   0.895512,
   0.915187,
   0.919759,
   0.910791,
   0.912988,
   0.923786,
   0.923742,
   0.925323,
   0.912369,
   0.906072,
   0.909787,
   0.904350,
   0.901056,
   0.905099,
   0.894153,
   0.893206,
   0.885677,
   0.886051,
   0.891308,
   0.901156,
   0.899750,
   0.883636,
   0.891028,
   0.900743,
   0.897827,
   0.889093,
   0.887745,
   0.894035,
   0.876703,
   0.866534,
   0.885130,
   0.893572,
   0.890646,
   0.880544,
   0.885842,
   0.887078,
   0.884810,
   0.877594,
   0.877174,
   0.887422,
   0.894104,
   0.892545,
   0.888121,
   0.890027,
   0.886817,
   0.872807,
   0.869151,
   0.863673,
   0.859059,
   0.859446,
   0.864185,
   0.874146,
   0.870175,
   0.866781,
   0.868221,
   0.861996,
   0.857338,
   0.858576,
   0.852936,
   0.859553,
   0.861120,
   0.863465,
   0.858218,
   0.848471,
   0.821770,
   0.826512,
   0.856926,
   0.874140,
   0.877585,
   0.875540,
   0.872476,
   0.867472,
   0.864455,
   0.864876,
   0.857731,
   0.842441,
   0.817994,
   0.759838,
   0.712194,
   0.771071,
   0.816145,
   0.841115,
   0.849893,
   0.847488,
   0.836237,
   0.847239,
   0.851696,
   0.849732,
   0.854605,
   0.857984,
   0.854146,
   0.842666,
   0.832312,
   0.832085,
   0.829274,
   0.833869,
   0.839792,
   0.839682,
   0.832606,
   0.835568,
   0.830653,
   0.821589,
   0.830051,
   0.836992,
   0.836440,
   0.836255,
   0.834413,
   0.822638,
   0.810314,
   0.802397,
   0.810217,
   0.817231,
   0.823493,
   0.825562,
   0.822077,
   0.815919,
   0.814757,
   0.818565,
   0.821717,
   0.817980,
   0.820958,
   0.822925,
   0.819767,
   0.820374,
   0.822278,
   0.821460,
   0.817508,
   0.812503,
   0.811154,
   0.809925,
   0.809021,
   0.802739,
   0.798601,
   0.798557,
   0.795328,
   0.797618,
   0.804420,
   0.812145,
   0.816876,
   0.817052,
   0.813846,
   0.810225,
   0.808691,
   0.809792,
   0.812282,
   0.814014,
   0.813304,
   0.809838,
   0.804696,
   0.799922,
   0.796149,
   0.793725,
   0.792215,
   0.790870,
   0.789438,
   0.788449,
   0.788589,
   0.790351,
   0.792889,
   0.794878,
   0.786610,
   0.772784,
   0.781283,
   0.783906,
   0.784956,
   0.781404,
   0.777387,
   0.778004,
   0.775988,
   0.767591,
   0.762701,
   0.762084,
   0.763219,
   0.765363,
   0.773035,
   0.776006,
   0.775849,
   0.772811,
   0.773589,
   0.775691,
   0.785530,
   0.790487,
   0.779346,
   0.771761,
   0.771025,
   0.774118,
   0.774045,
   0.774169,
   0.775313,
   0.775506,
   0.775246,
   0.775392,
   0.774393,
   0.779544,
   0.776670,
   0.768524,
   0.771668,
   0.777810,
   0.768112,
   0.762224,
   0.762712,
   0.756618,
   0.745589,
   0.733533,
   0.739714,
   0.738702,
   0.730401,
   0.743073,
   0.774250,
   0.778473,
   0.774139,
   0.774093,
   0.757995,
   0.754270,
   0.750502,
   0.757951,
   0.745528,
   0.761857,
   0.748726,
   0.754404,
   0.746236,
   0.732212,
   0.744437,
   0.720624,
   0.720154,
   0.745821,
   0.742203,
   0.736005,
   0.737509,
   0.741535,
   0.746298,
   0.741410,
   0.747397,
   0.755181,
   0.755814,
   0.746996,
   0.739803,
   0.736694,
   0.737851,
   0.738711,
   0.742115,
   0.738365,
   0.728381,
   0.710542,
   0.717389,
   0.726805,
   0.724209,
   0.717113,
   0.712633,
   0.716935,
   0.716111,
   0.726346,
   0.728697,
   0.731013,
   0.717266,
   0.714954,
   0.726362,
   0.729347,
   0.722727,
   0.729635,
   0.726952,
   0.722981,
   0.720943,
   0.720048,
   0.703099,
   0.706205,
   0.716820,
   0.704748,
   0.700619,
   0.714478,
   0.707510,
   0.708180,
   0.707987,
   0.715243,
   0.709545,
   0.710797,
   0.709639,
   0.708245,
   0.707095,
   0.706312,
   0.705101,
   0.703893,
   0.703202,
   0.702289,
   0.701450,
   0.700652,
   0.700121,
   0.699426,
   0.698792,
   0.698142,
   0.697486,
   0.696822,
   0.696152,
   0.695475,
   0.694793,
   0.694106,
   0.693416,
   0.692723,
   0.692029,
   0.691312,
   0.690367,
   0.689285,
   0.688498,
   0.688152,
   0.687403,
   0.686317,
   0.685321,
   0.684119,
   0.683338,
   0.682710,
   0.681982,
   0.681636,
   0.686889,
   0.688439,
   0.679381,
   0.667895,
   0.679904,
   0.684459,
   0.681828,
   0.684360,
   0.673832,
   0.669246,
   0.670739,
   0.678057,
   0.677806,
   0.671721,
   0.668026,
   0.673153,
   0.670191,
   0.678823,
   0.677616,
   0.671727,
   0.656857,
   0.662882,
   0.667278,
   0.662566,
   0.664310,
   0.669037,
   0.666608,
   0.665547,
   0.662714,
   0.665490,
   0.664277,
   0.670253,
   0.667791,
   0.664378,
   0.661911,
   0.661423,
   0.654259,
   0.646186,
   0.650077,
   0.649666,
   0.633830,
   0.632017,
   0.631258,
   0.633969,
   0.649657,
   0.644872,
   0.646691,
   0.649905,
   0.650616,
   0.651257,
   0.648143,
   0.647101,
   0.647750,
   0.633141,
   0.629748,
   0.637374,
   0.640206,
   0.642179,
   0.636714,
   0.627239,
   0.638745,
   0.638837,
   0.634958,
   0.625359,
   0.632596,
   0.638638,
   0.645525,
   0.637479,
   0.635032,
   0.634518,
   0.637519,
   0.628856,
   0.629035,
   0.626527,
   0.635287,
   0.641971,
   0.638656,
   0.644688,
   0.640897,
   0.641993,
   0.629665,
   0.631776,
   0.624593,
   0.622149,
   0.618540,
   0.613551,
   0.598897,
   0.605514,
   0.621695,
   0.604342,
   0.604282,
   0.606922,
   0.603007,
   0.597244,
   0.625505,
   0.635198,
   0.624005,
   0.620460,
   0.602265,
   0.573734,
   0.574880,
   0.625204,
   0.621119,
   0.627757,
   0.626914,
   0.616772,
   0.622738,
   0.626126,
   0.617280,
   0.606417,
   0.609543,
   0.609253,
   0.602947,
   0.605324,
   0.605677,
   0.600274,
   0.598676,
   0.599761,
   0.599487,
   0.593589,
   0.585438,
   0.585915,
   0.599654,
   0.597424,
   0.600431,
   0.603189,
   0.600428,
   0.598793,
   0.605182,
   0.600225,
   0.600065,
   0.594525,
   0.601690,
   0.598619,
   0.596329,
   0.598844,
   0.596285,
   0.593763,
   0.584946,
   0.590140,
   0.589717,
   0.581031,
   0.588211,
   0.588027,
   0.593240,
   0.595128,
   0.589015,
   0.580841,
   0.573586,
   0.588200,
   0.586646,
   0.587954,
   0.569764,
   0.534258,
   0.541589,
   0.571121,
   0.570328,
   0.564658,
   0.571350,
   0.567286,
   0.550944,
   0.504130,
   0.450633,
   0.499490,
   0.549597,
   0.559394,
   0.568341,
   0.570014,
   0.569584,
   0.565217,
   0.567813,
   0.566993,
   0.564843,
   0.562026,
   0.567370,
   0.563527,
   0.561887,
   0.564967,
   0.573018,
   0.565244,
   0.572256,
   0.568547,
   0.569415,
   0.555230,
   0.550616,
   0.523078,
   0.465025,
   0.499390,
   0.540699,
   0.550092,
   0.553910,
   0.550348,
   0.556292,
   0.555092,
   0.566094,
   0.569971,
   0.561842,
   0.566665,
   0.569212,
   0.562632,
   0.551202,
   0.550831,
   0.555231,
   0.554566,
   0.548936,
   0.552976,
   0.554739,
   0.558031,
   0.552373,
   0.552451,
   0.554695,
   0.554900,
   0.545267,
   0.544946,
   0.541871,
   0.527502,
   0.543902,
   0.543254,
   0.542592,
   0.543794,
   0.546890,
   0.546368,
   0.544893,
   0.544198,
   0.545287,
   0.543949,
   0.527865,
   0.525485,
   0.536309,
   0.536314,
   0.543154,
   0.539171,
   0.537987,
   0.542233,
   0.541641,
   0.543391,
   0.542283,
   0.536059,
   0.539698,
   0.535160,
   0.539016,
   0.541180,
   0.544271,
   0.537289,
   0.530422,
   0.534966,
   0.524616,
   0.522711,
   0.522097,
   0.525118,
   0.518687,
   0.490093,
   0.498087,
   0.513944,
   0.498350,
   0.501037,
   0.496347,
   0.498220,
   0.499765,
   0.523240,
   0.543270,
   0.559131,
   0.552607,
   0.550876,
   0.544676,
   0.544277,
   0.520671,
   0.514279,
   0.500684,
   0.504272,
   0.501475,
   0.496037,
   0.498141,
   0.505278,
   0.509415,
   0.514484,
   0.526985,
   0.497368,
   0.534331,
   0.519366,
   0.501167,
   0.503780,
   0.523032,
   0.513478,
   0.488104,
   0.489130,
   0.510495,
   0.508494,
   0.489027,
   0.495588,
   0.509046,
   0.514629,
   0.518955,
   0.517064,
   0.522546,
   0.520687,
   0.513364,
   0.510637,
   0.514507,
   0.510125,
   0.510202,
   0.509128,
   0.505207,
   0.501277,
   0.505411,
   0.503873,
   0.510423,
   0.521493,
   0.523118,
   0.518662,
   0.514751,
   0.510855,
   0.501511,
   0.487625,
   0.475038,
   0.462424,
   0.445733,
   0.433479,
   0.443072,
   0.461798,
   0.458952,
   0.450476,
   0.438092,
   0.461897,
   0.458567,
   0.439534,
   0.474833,
   0.456578,
   0.462370,
   0.474200,
   0.484199,
   0.517184,
   0.550843,
   0.542376,
   0.525773,
   0.507344,
   0.492695,
   0.482646,
   0.479477,
   0.444857,
   0.458441,
   0.451072,
   0.428005,
   0.474137,
   0.473717,
   0.460147,
   0.473203,
   0.480345,
   0.482840,
   0.468783,
   0.468837,
   0.486190,
   0.467784,
   0.447111,
   0.457290,
   0.496645,
   0.492748,
   0.475900,
   0.469232,
   0.469546,
   0.489931,
   0.480360,
   0.469627,
   0.470467,
   0.465178,
   0.458243,
   0.463820,
   0.464510,
   0.476940,
   0.475733,
   0.466434,
   0.469648,
   0.458165,
   0.472278,
   0.476570,
   0.479595,
   0.482668,
   0.473898,
   0.464848,
   0.463136,
   0.479230,
   0.465542,
   0.468815,
   0.468752,
   0.475827,
   0.468576,
   0.467056,
   0.469302,
   0.481907,
   0.486478,
   0.482560,
   0.484830,
   0.482115,
   0.478946,
   0.478170,
   0.484899,
   0.478058,
   0.468918,
   0.464233,
   0.461304,
   0.456525,
   0.455850,
   0.459866,
   0.465210,
   0.459608,
   0.458574,
   0.459363,
   0.466876,
   0.472656,
   0.464603,
   0.451999,
   0.458093,
   0.465359,
   0.454391,
   0.460156,
   0.470872,
   0.469913,
   0.460344,
   0.457249,
   0.465758,
   0.466590,
   0.461172,
   0.466865,
   0.457917,
   0.456355,
   0.471173,
   0.460398,
   0.451389,
   0.448715,
   0.460118,
   0.450408,
   0.450774,
   0.452374,
   0.458200,
   0.465742,
   0.449234,
   0.446683,
   0.448785,
   0.451152,
   0.456819,
   0.452330,
   0.442409,
   0.450958,
   0.464527,
   0.454676,
   0.453537,
   0.457605,
   0.458258,
   0.445064,
   0.444409,
   0.449714,
   0.454418,
   0.451537,
   0.461475,
   0.448861,
   0.448782,
   0.457195,
   0.465492,
   0.426595,
   0.443174,
   0.459507,
   0.445583,
   0.434642,
   0.421480,
   0.437176,
   0.429118,
   0.435156,
   0.430976,
   0.435551,
   0.440331,
   0.451618,
   0.444224,
   0.431561,
   0.419774,
   0.455379,
   0.432543,
   0.409353,
   0.435648,
   0.435898,
   0.450596,
   0.434805,
   0.430043,
   0.430866,
   0.435193,
   0.425656,
   0.425336,
   0.406843,
   0.428673,
   0.438379,
   0.430083,
   0.430360,
   0.429337,
   0.427186,
   0.424074,
   0.420253,
   0.416301,
   0.412878,
   0.410642,
   0.410035,
   0.410621,
   0.411747,
   0.412758,
   0.413189,
   0.413321,
   0.413624,
   0.414570,
   0.416406,
   0.418501,
   0.420001,
   0.420054,
   0.418142,
   0.415091,
   0.412065,
   0.410225,
   0.410350,
   0.411685,
   0.413089,
   0.413424,
   0.411967,
   0.409656,
   0.407848,
   0.407899,
   0.410675,
   0.415090,
   0.419568,
   0.422534,
   0.422825,
   0.420934,
   0.417766,
   0.414226,
   0.411066,
   0.408419,
   0.406268,
   0.404593,
   0.403377,
   0.402620,
   0.402323,
   0.402488,
   0.403093,
   0.404010,
   0.405088,
   0.406176,
   0.407150,
   0.407988,
   0.408697,
   0.409285,
   0.409730,
   0.409903,
   0.409651,
   0.408817,
   0.407311,
   0.405304,
   0.403032,
   0.400731,
   0.398613,
   0.396785,
   0.395330,
   0.394331,
   0.393809,
   0.393535,
   0.393217,
   0.392566,
   0.391420,
   0.390145,
   0.389239,
   0.389197,
   0.390328,
   0.392182,
   0.394118,
   0.395498,
   0.395855,
   0.395415,
   0.394577,
   0.393740,
   0.393219,
   0.392998,
   0.392977,
   0.393056
};

#endif
