#ifndef _G8IV_H_
#define _G8IV_H_

/* spectrum for g8iv star           */
/* number of elements = 1895       */

static double _g8iv_lambda[] = {
   1150.000000,
   1155.000000,
   1160.000000,
   1165.000000,
   1170.000000,
   1175.000000,
   1180.000000,
   1185.000000,
   1190.000000,
   1195.000000,
   1200.000000,
   1205.000000,
   1210.000000,
   1215.000000,
   1220.000000,
   1225.000000,
   1230.000000,
   1235.000000,
   1240.000000,
   1245.000000,
   1250.000000,
   1255.000000,
   1260.000000,
   1265.000000,
   1270.000000,
   1275.000000,
   1280.000000,
   1285.000000,
   1290.000000,
   1295.000000,
   1300.000000,
   1305.000000,
   1310.000000,
   1315.000000,
   1320.000000,
   1325.000000,
   1330.000000,
   1335.000000,
   1340.000000,
   1345.000000,
   1350.000000,
   1355.000000,
   1360.000000,
   1365.000000,
   1370.000000,
   1375.000000,
   1380.000000,
   1385.000000,
   1390.000000,
   1395.000000,
   1400.000000,
   1405.000000,
   1410.000000,
   1415.000000,
   1420.000000,
   1425.000000,
   1430.000000,
   1435.000000,
   1440.000000,
   1445.000000,
   1450.000000,
   1455.000000,
   1460.000000,
   1465.000000,
   1470.000000,
   1475.000000,
   1480.000000,
   1485.000000,
   1490.000000,
   1495.000000,
   1500.000000,
   1505.000000,
   1510.000000,
   1515.000000,
   1520.000000,
   1525.000000,
   1530.000000,
   1535.000000,
   1540.000000,
   1545.000000,
   1550.000000,
   1555.000000,
   1560.000000,
   1565.000000,
   1570.000000,
   1575.000000,
   1580.000000,
   1585.000000,
   1590.000000,
   1595.000000,
   1600.000000,
   1605.000000,
   1610.000000,
   1615.000000,
   1620.000000,
   1625.000000,
   1630.000000,
   1635.000000,
   1640.000000,
   1645.000000,
   1650.000000,
   1655.000000,
   1660.000000,
   1665.000000,
   1670.000000,
   1675.000000,
   1680.000000,
   1685.000000,
   1690.000000,
   1695.000000,
   1700.000000,
   1705.000000,
   1710.000000,
   1715.000000,
   1720.000000,
   1725.000000,
   1730.000000,
   1735.000000,
   1740.000000,
   1745.000000,
   1750.000000,
   1755.000000,
   1760.000000,
   1765.000000,
   1770.000000,
   1775.000000,
   1780.000000,
   1785.000000,
   1790.000000,
   1795.000000,
   1800.000000,
   1805.000000,
   1810.000000,
   1815.000000,
   1820.000000,
   1825.000000,
   1830.000000,
   1835.000000,
   1840.000000,
   1845.000000,
   1850.000000,
   1855.000000,
   1860.000000,
   1865.000000,
   1870.000000,
   1875.000000,
   1880.000000,
   1885.000000,
   1890.000000,
   1895.000000,
   1900.000000,
   1905.000000,
   1910.000000,
   1915.000000,
   1920.000000,
   1925.000000,
   1930.000000,
   1935.000000,
   1940.000000,
   1945.000000,
   1950.000000,
   1955.000000,
   1960.000000,
   1965.000000,
   1970.000000,
   1975.000000,
   1980.000000,
   1985.000000,
   1990.000000,
   1995.000000,
   2000.000000,
   2005.000000,
   2010.000000,
   2015.000000,
   2020.000000,
   2025.000000,
   2030.000000,
   2035.000000,
   2040.000000,
   2045.000000,
   2050.000000,
   2055.000000,
   2060.000000,
   2065.000000,
   2070.000000,
   2075.000000,
   2080.000000,
   2085.000000,
   2090.000000,
   2095.000000,
   2100.000000,
   2105.000000,
   2110.000000,
   2115.000000,
   2120.000000,
   2125.000000,
   2130.000000,
   2135.000000,
   2140.000000,
   2145.000000,
   2150.000000,
   2155.000000,
   2160.000000,
   2165.000000,
   2170.000000,
   2175.000000,
   2180.000000,
   2185.000000,
   2190.000000,
   2195.000000,
   2200.000000,
   2205.000000,
   2210.000000,
   2215.000000,
   2220.000000,
   2225.000000,
   2230.000000,
   2235.000000,
   2240.000000,
   2245.000000,
   2250.000000,
   2255.000000,
   2260.000000,
   2265.000000,
   2270.000000,
   2275.000000,
   2280.000000,
   2285.000000,
   2290.000000,
   2295.000000,
   2300.000000,
   2305.000000,
   2310.000000,
   2315.000000,
   2320.000000,
   2325.000000,
   2330.000000,
   2335.000000,
   2340.000000,
   2345.000000,
   2350.000000,
   2355.000000,
   2360.000000,
   2365.000000,
   2370.000000,
   2375.000000,
   2380.000000,
   2385.000000,
   2390.000000,
   2395.000000,
   2400.000000,
   2405.000000,
   2410.000000,
   2415.000000,
   2420.000000,
   2425.000000,
   2430.000000,
   2435.000000,
   2440.000000,
   2445.000000,
   2450.000000,
   2455.000000,
   2460.000000,
   2465.000000,
   2470.000000,
   2475.000000,
   2480.000000,
   2485.000000,
   2490.000000,
   2495.000000,
   2500.000000,
   2505.000000,
   2510.000000,
   2515.000000,
   2520.000000,
   2525.000000,
   2530.000000,
   2535.000000,
   2540.000000,
   2545.000000,
   2550.000000,
   2555.000000,
   2560.000000,
   2565.000000,
   2570.000000,
   2575.000000,
   2580.000000,
   2585.000000,
   2590.000000,
   2595.000000,
   2600.000000,
   2605.000000,
   2610.000000,
   2615.000000,
   2620.000000,
   2625.000000,
   2630.000000,
   2635.000000,
   2640.000000,
   2645.000000,
   2650.000000,
   2655.000000,
   2660.000000,
   2665.000000,
   2670.000000,
   2675.000000,
   2680.000000,
   2685.000000,
   2690.000000,
   2695.000000,
   2700.000000,
   2705.000000,
   2710.000000,
   2715.000000,
   2720.000000,
   2725.000000,
   2730.000000,
   2735.000000,
   2740.000000,
   2745.000000,
   2750.000000,
   2755.000000,
   2760.000000,
   2765.000000,
   2770.000000,
   2775.000000,
   2780.000000,
   2785.000000,
   2790.000000,
   2795.000000,
   2800.000000,
   2805.000000,
   2810.000000,
   2815.000000,
   2820.000000,
   2825.000000,
   2830.000000,
   2835.000000,
   2840.000000,
   2845.000000,
   2850.000000,
   2855.000000,
   2860.000000,
   2865.000000,
   2870.000000,
   2875.000000,
   2880.000000,
   2885.000000,
   2890.000000,
   2895.000000,
   2900.000000,
   2905.000000,
   2910.000000,
   2915.000000,
   2920.000000,
   2925.000000,
   2930.000000,
   2935.000000,
   2940.000000,
   2945.000000,
   2950.000000,
   2955.000000,
   2960.000000,
   2965.000000,
   2970.000000,
   2975.000000,
   2980.000000,
   2985.000000,
   2990.000000,
   2995.000000,
   3000.000000,
   3005.000000,
   3010.000000,
   3015.000000,
   3020.000000,
   3025.000000,
   3030.000000,
   3035.000000,
   3040.000000,
   3045.000000,
   3050.000000,
   3055.000000,
   3060.000000,
   3065.000000,
   3070.000000,
   3075.000000,
   3080.000000,
   3085.000000,
   3090.000000,
   3095.000000,
   3100.000000,
   3105.000000,
   3110.000000,
   3115.000000,
   3120.000000,
   3125.000000,
   3130.000000,
   3135.000000,
   3140.000000,
   3145.000000,
   3150.000000,
   3155.000000,
   3160.000000,
   3165.000000,
   3170.000000,
   3175.000000,
   3180.000000,
   3185.000000,
   3190.000000,
   3195.000000,
   3200.000000,
   3205.000000,
   3210.000000,
   3215.000000,
   3220.000000,
   3225.000000,
   3230.000000,
   3235.000000,
   3240.000000,
   3245.000000,
   3250.000000,
   3255.000000,
   3260.000000,
   3265.000000,
   3270.000000,
   3275.000000,
   3280.000000,
   3285.000000,
   3290.000000,
   3295.000000,
   3300.000000,
   3305.000000,
   3310.000000,
   3315.000000,
   3320.000000,
   3325.000000,
   3330.000000,
   3335.000000,
   3340.000000,
   3345.000000,
   3350.000000,
   3355.000000,
   3360.000000,
   3365.000000,
   3370.000000,
   3375.000000,
   3380.000000,
   3385.000000,
   3390.000000,
   3395.000000,
   3400.000000,
   3405.000000,
   3410.000000,
   3415.000000,
   3420.000000,
   3425.000000,
   3430.000000,
   3435.000000,
   3440.000000,
   3445.000000,
   3450.000000,
   3455.000000,
   3460.000000,
   3465.000000,
   3470.000000,
   3475.000000,
   3480.000000,
   3485.000000,
   3490.000000,
   3495.000000,
   3500.000000,
   3505.000000,
   3510.000000,
   3515.000000,
   3520.000000,
   3525.000000,
   3530.000000,
   3535.000000,
   3540.000000,
   3545.000000,
   3550.000000,
   3555.000000,
   3560.000000,
   3565.000000,
   3570.000000,
   3575.000000,
   3580.000000,
   3585.000000,
   3590.000000,
   3595.000000,
   3600.000000,
   3605.000000,
   3610.000000,
   3615.000000,
   3620.000000,
   3625.000000,
   3630.000000,
   3635.000000,
   3640.000000,
   3645.000000,
   3650.000000,
   3655.000000,
   3660.000000,
   3665.000000,
   3670.000000,
   3675.000000,
   3680.000000,
   3685.000000,
   3690.000000,
   3695.000000,
   3700.000000,
   3705.000000,
   3710.000000,
   3715.000000,
   3720.000000,
   3725.000000,
   3730.000000,
   3735.000000,
   3740.000000,
   3745.000000,
   3750.000000,
   3755.000000,
   3760.000000,
   3765.000000,
   3770.000000,
   3775.000000,
   3780.000000,
   3785.000000,
   3790.000000,
   3795.000000,
   3800.000000,
   3805.000000,
   3810.000000,
   3815.000000,
   3820.000000,
   3825.000000,
   3830.000000,
   3835.000000,
   3840.000000,
   3845.000000,
   3850.000000,
   3855.000000,
   3860.000000,
   3865.000000,
   3870.000000,
   3875.000000,
   3880.000000,
   3885.000000,
   3890.000000,
   3895.000000,
   3900.000000,
   3905.000000,
   3910.000000,
   3915.000000,
   3920.000000,
   3925.000000,
   3930.000000,
   3935.000000,
   3940.000000,
   3945.000000,
   3950.000000,
   3955.000000,
   3960.000000,
   3965.000000,
   3970.000000,
   3975.000000,
   3980.000000,
   3985.000000,
   3990.000000,
   3995.000000,
   4000.000000,
   4005.000000,
   4010.000000,
   4015.000000,
   4020.000000,
   4025.000000,
   4030.000000,
   4035.000000,
   4040.000000,
   4045.000000,
   4050.000000,
   4055.000000,
   4060.000000,
   4065.000000,
   4070.000000,
   4075.000000,
   4080.000000,
   4085.000000,
   4090.000000,
   4095.000000,
   4100.000000,
   4105.000000,
   4110.000000,
   4115.000000,
   4120.000000,
   4125.000000,
   4130.000000,
   4135.000000,
   4140.000000,
   4145.000000,
   4150.000000,
   4155.000000,
   4160.000000,
   4165.000000,
   4170.000000,
   4175.000000,
   4180.000000,
   4185.000000,
   4190.000000,
   4195.000000,
   4200.000000,
   4205.000000,
   4210.000000,
   4215.000000,
   4220.000000,
   4225.000000,
   4230.000000,
   4235.000000,
   4240.000000,
   4245.000000,
   4250.000000,
   4255.000000,
   4260.000000,
   4265.000000,
   4270.000000,
   4275.000000,
   4280.000000,
   4285.000000,
   4290.000000,
   4295.000000,
   4300.000000,
   4305.000000,
   4310.000000,
   4315.000000,
   4320.000000,
   4325.000000,
   4330.000000,
   4335.000000,
   4340.000000,
   4345.000000,
   4350.000000,
   4355.000000,
   4360.000000,
   4365.000000,
   4370.000000,
   4375.000000,
   4380.000000,
   4385.000000,
   4390.000000,
   4395.000000,
   4400.000000,
   4405.000000,
   4410.000000,
   4415.000000,
   4420.000000,
   4425.000000,
   4430.000000,
   4435.000000,
   4440.000000,
   4445.000000,
   4450.000000,
   4455.000000,
   4460.000000,
   4465.000000,
   4470.000000,
   4475.000000,
   4480.000000,
   4485.000000,
   4490.000000,
   4495.000000,
   4500.000000,
   4505.000000,
   4510.000000,
   4515.000000,
   4520.000000,
   4525.000000,
   4530.000000,
   4535.000000,
   4540.000000,
   4545.000000,
   4550.000000,
   4555.000000,
   4560.000000,
   4565.000000,
   4570.000000,
   4575.000000,
   4580.000000,
   4585.000000,
   4590.000000,
   4595.000000,
   4600.000000,
   4605.000000,
   4610.000000,
   4615.000000,
   4620.000000,
   4625.000000,
   4630.000000,
   4635.000000,
   4640.000000,
   4645.000000,
   4650.000000,
   4655.000000,
   4660.000000,
   4665.000000,
   4670.000000,
   4675.000000,
   4680.000000,
   4685.000000,
   4690.000000,
   4695.000000,
   4700.000000,
   4705.000000,
   4710.000000,
   4715.000000,
   4720.000000,
   4725.000000,
   4730.000000,
   4735.000000,
   4740.000000,
   4745.000000,
   4750.000000,
   4755.000000,
   4760.000000,
   4765.000000,
   4770.000000,
   4775.000000,
   4780.000000,
   4785.000000,
   4790.000000,
   4795.000000,
   4800.000000,
   4805.000000,
   4810.000000,
   4815.000000,
   4820.000000,
   4825.000000,
   4830.000000,
   4835.000000,
   4840.000000,
   4845.000000,
   4850.000000,
   4855.000000,
   4860.000000,
   4865.000000,
   4870.000000,
   4875.000000,
   4880.000000,
   4885.000000,
   4890.000000,
   4895.000000,
   4900.000000,
   4905.000000,
   4910.000000,
   4915.000000,
   4920.000000,
   4925.000000,
   4930.000000,
   4935.000000,
   4940.000000,
   4945.000000,
   4950.000000,
   4955.000000,
   4960.000000,
   4965.000000,
   4970.000000,
   4975.000000,
   4980.000000,
   4985.000000,
   4990.000000,
   4995.000000,
   5000.000000,
   5005.000000,
   5010.000000,
   5015.000000,
   5020.000000,
   5025.000000,
   5030.000000,
   5035.000000,
   5040.000000,
   5045.000000,
   5050.000000,
   5055.000000,
   5060.000000,
   5065.000000,
   5070.000000,
   5075.000000,
   5080.000000,
   5085.000000,
   5090.000000,
   5095.000000,
   5100.000000,
   5105.000000,
   5110.000000,
   5115.000000,
   5120.000000,
   5125.000000,
   5130.000000,
   5135.000000,
   5140.000000,
   5145.000000,
   5150.000000,
   5155.000000,
   5160.000000,
   5165.000000,
   5170.000000,
   5175.000000,
   5180.000000,
   5185.000000,
   5190.000000,
   5195.000000,
   5200.000000,
   5205.000000,
   5210.000000,
   5215.000000,
   5220.000000,
   5225.000000,
   5230.000000,
   5235.000000,
   5240.000000,
   5245.000000,
   5250.000000,
   5255.000000,
   5260.000000,
   5265.000000,
   5270.000000,
   5275.000000,
   5280.000000,
   5285.000000,
   5290.000000,
   5295.000000,
   5300.000000,
   5305.000000,
   5310.000000,
   5315.000000,
   5320.000000,
   5325.000000,
   5330.000000,
   5335.000000,
   5340.000000,
   5345.000000,
   5350.000000,
   5355.000000,
   5360.000000,
   5365.000000,
   5370.000000,
   5375.000000,
   5380.000000,
   5385.000000,
   5390.000000,
   5395.000000,
   5400.000000,
   5405.000000,
   5410.000000,
   5415.000000,
   5420.000000,
   5425.000000,
   5430.000000,
   5435.000000,
   5440.000000,
   5445.000000,
   5450.000000,
   5455.000000,
   5460.000000,
   5465.000000,
   5470.000000,
   5475.000000,
   5480.000000,
   5485.000000,
   5490.000000,
   5495.000000,
   5500.000000,
   5505.000000,
   5510.000000,
   5515.000000,
   5520.000000,
   5525.000000,
   5530.000000,
   5535.000000,
   5540.000000,
   5545.000000,
   5550.000000,
   5555.000000,
   5560.000000,
   5565.000000,
   5570.000000,
   5575.000000,
   5580.000000,
   5585.000000,
   5590.000000,
   5595.000000,
   5600.000000,
   5605.000000,
   5610.000000,
   5615.000000,
   5620.000000,
   5625.000000,
   5630.000000,
   5635.000000,
   5640.000000,
   5645.000000,
   5650.000000,
   5655.000000,
   5660.000000,
   5665.000000,
   5670.000000,
   5675.000000,
   5680.000000,
   5685.000000,
   5690.000000,
   5695.000000,
   5700.000000,
   5705.000000,
   5710.000000,
   5715.000000,
   5720.000000,
   5725.000000,
   5730.000000,
   5735.000000,
   5740.000000,
   5745.000000,
   5750.000000,
   5755.000000,
   5760.000000,
   5765.000000,
   5770.000000,
   5775.000000,
   5780.000000,
   5785.000000,
   5790.000000,
   5795.000000,
   5800.000000,
   5805.000000,
   5810.000000,
   5815.000000,
   5820.000000,
   5825.000000,
   5830.000000,
   5835.000000,
   5840.000000,
   5845.000000,
   5850.000000,
   5855.000000,
   5860.000000,
   5865.000000,
   5870.000000,
   5875.000000,
   5880.000000,
   5885.000000,
   5890.000000,
   5895.000000,
   5900.000000,
   5905.000000,
   5910.000000,
   5915.000000,
   5920.000000,
   5925.000000,
   5930.000000,
   5935.000000,
   5940.000000,
   5945.000000,
   5950.000000,
   5955.000000,
   5960.000000,
   5965.000000,
   5970.000000,
   5975.000000,
   5980.000000,
   5985.000000,
   5990.000000,
   5995.000000,
   6000.000000,
   6005.000000,
   6010.000000,
   6015.000000,
   6020.000000,
   6025.000000,
   6030.000000,
   6035.000000,
   6040.000000,
   6045.000000,
   6050.000000,
   6055.000000,
   6060.000000,
   6065.000000,
   6070.000000,
   6075.000000,
   6080.000000,
   6085.000000,
   6090.000000,
   6095.000000,
   6100.000000,
   6105.000000,
   6110.000000,
   6115.000000,
   6120.000000,
   6125.000000,
   6130.000000,
   6135.000000,
   6140.000000,
   6145.000000,
   6150.000000,
   6155.000000,
   6160.000000,
   6165.000000,
   6170.000000,
   6175.000000,
   6180.000000,
   6185.000000,
   6190.000000,
   6195.000000,
   6200.000000,
   6205.000000,
   6210.000000,
   6215.000000,
   6220.000000,
   6225.000000,
   6230.000000,
   6235.000000,
   6240.000000,
   6245.000000,
   6250.000000,
   6255.000000,
   6260.000000,
   6265.000000,
   6270.000000,
   6275.000000,
   6280.000000,
   6285.000000,
   6290.000000,
   6295.000000,
   6300.000000,
   6305.000000,
   6310.000000,
   6315.000000,
   6320.000000,
   6325.000000,
   6330.000000,
   6335.000000,
   6340.000000,
   6345.000000,
   6350.000000,
   6355.000000,
   6360.000000,
   6365.000000,
   6370.000000,
   6375.000000,
   6380.000000,
   6385.000000,
   6390.000000,
   6395.000000,
   6400.000000,
   6405.000000,
   6410.000000,
   6415.000000,
   6420.000000,
   6425.000000,
   6430.000000,
   6435.000000,
   6440.000000,
   6445.000000,
   6450.000000,
   6455.000000,
   6460.000000,
   6465.000000,
   6470.000000,
   6475.000000,
   6480.000000,
   6485.000000,
   6490.000000,
   6495.000000,
   6500.000000,
   6505.000000,
   6510.000000,
   6515.000000,
   6520.000000,
   6525.000000,
   6530.000000,
   6535.000000,
   6540.000000,
   6545.000000,
   6550.000000,
   6555.000000,
   6560.000000,
   6565.000000,
   6570.000000,
   6575.000000,
   6580.000000,
   6585.000000,
   6590.000000,
   6595.000000,
   6600.000000,
   6605.000000,
   6610.000000,
   6615.000000,
   6620.000000,
   6625.000000,
   6630.000000,
   6635.000000,
   6640.000000,
   6645.000000,
   6650.000000,
   6655.000000,
   6660.000000,
   6665.000000,
   6670.000000,
   6675.000000,
   6680.000000,
   6685.000000,
   6690.000000,
   6695.000000,
   6700.000000,
   6705.000000,
   6710.000000,
   6715.000000,
   6720.000000,
   6725.000000,
   6730.000000,
   6735.000000,
   6740.000000,
   6745.000000,
   6750.000000,
   6755.000000,
   6760.000000,
   6765.000000,
   6770.000000,
   6775.000000,
   6780.000000,
   6785.000000,
   6790.000000,
   6795.000000,
   6800.000000,
   6805.000000,
   6810.000000,
   6815.000000,
   6820.000000,
   6825.000000,
   6830.000000,
   6835.000000,
   6840.000000,
   6845.000000,
   6850.000000,
   6855.000000,
   6860.000000,
   6865.000000,
   6870.000000,
   6875.000000,
   6880.000000,
   6885.000000,
   6890.000000,
   6895.000000,
   6900.000000,
   6905.000000,
   6910.000000,
   6915.000000,
   6920.000000,
   6925.000000,
   6930.000000,
   6935.000000,
   6940.000000,
   6945.000000,
   6950.000000,
   6955.000000,
   6960.000000,
   6965.000000,
   6970.000000,
   6975.000000,
   6980.000000,
   6985.000000,
   6990.000000,
   6995.000000,
   7000.000000,
   7005.000000,
   7010.000000,
   7015.000000,
   7020.000000,
   7025.000000,
   7030.000000,
   7035.000000,
   7040.000000,
   7045.000000,
   7050.000000,
   7055.000000,
   7060.000000,
   7065.000000,
   7070.000000,
   7075.000000,
   7080.000000,
   7085.000000,
   7090.000000,
   7095.000000,
   7100.000000,
   7105.000000,
   7110.000000,
   7115.000000,
   7120.000000,
   7125.000000,
   7130.000000,
   7135.000000,
   7140.000000,
   7145.000000,
   7150.000000,
   7155.000000,
   7160.000000,
   7165.000000,
   7170.000000,
   7175.000000,
   7180.000000,
   7185.000000,
   7190.000000,
   7195.000000,
   7200.000000,
   7205.000000,
   7210.000000,
   7215.000000,
   7220.000000,
   7225.000000,
   7230.000000,
   7235.000000,
   7240.000000,
   7245.000000,
   7250.000000,
   7255.000000,
   7260.000000,
   7265.000000,
   7270.000000,
   7275.000000,
   7280.000000,
   7285.000000,
   7290.000000,
   7295.000000,
   7300.000000,
   7305.000000,
   7310.000000,
   7315.000000,
   7320.000000,
   7325.000000,
   7330.000000,
   7335.000000,
   7340.000000,
   7345.000000,
   7350.000000,
   7355.000000,
   7360.000000,
   7365.000000,
   7370.000000,
   7375.000000,
   7380.000000,
   7385.000000,
   7390.000000,
   7395.000000,
   7400.000000,
   7405.000000,
   7410.000000,
   7415.000000,
   7420.000000,
   7425.000000,
   7430.000000,
   7435.000000,
   7440.000000,
   7445.000000,
   7450.000000,
   7455.000000,
   7460.000000,
   7465.000000,
   7470.000000,
   7475.000000,
   7480.000000,
   7485.000000,
   7490.000000,
   7495.000000,
   7500.000000,
   7505.000000,
   7510.000000,
   7515.000000,
   7520.000000,
   7525.000000,
   7530.000000,
   7535.000000,
   7540.000000,
   7545.000000,
   7550.000000,
   7555.000000,
   7560.000000,
   7565.000000,
   7570.000000,
   7575.000000,
   7580.000000,
   7585.000000,
   7590.000000,
   7595.000000,
   7600.000000,
   7605.000000,
   7610.000000,
   7615.000000,
   7620.000000,
   7625.000000,
   7630.000000,
   7635.000000,
   7640.000000,
   7645.000000,
   7650.000000,
   7655.000000,
   7660.000000,
   7665.000000,
   7670.000000,
   7675.000000,
   7680.000000,
   7685.000000,
   7690.000000,
   7695.000000,
   7700.000000,
   7705.000000,
   7710.000000,
   7715.000000,
   7720.000000,
   7725.000000,
   7730.000000,
   7735.000000,
   7740.000000,
   7745.000000,
   7750.000000,
   7755.000000,
   7760.000000,
   7765.000000,
   7770.000000,
   7775.000000,
   7780.000000,
   7785.000000,
   7790.000000,
   7795.000000,
   7800.000000,
   7805.000000,
   7810.000000,
   7815.000000,
   7820.000000,
   7825.000000,
   7830.000000,
   7835.000000,
   7840.000000,
   7845.000000,
   7850.000000,
   7855.000000,
   7860.000000,
   7865.000000,
   7870.000000,
   7875.000000,
   7880.000000,
   7885.000000,
   7890.000000,
   7895.000000,
   7900.000000,
   7905.000000,
   7910.000000,
   7915.000000,
   7920.000000,
   7925.000000,
   7930.000000,
   7935.000000,
   7940.000000,
   7945.000000,
   7950.000000,
   7955.000000,
   7960.000000,
   7965.000000,
   7970.000000,
   7975.000000,
   7980.000000,
   7985.000000,
   7990.000000,
   7995.000000,
   8000.000000,
   8005.000000,
   8010.000000,
   8015.000000,
   8020.000000,
   8025.000000,
   8030.000000,
   8035.000000,
   8040.000000,
   8045.000000,
   8050.000000,
   8055.000000,
   8060.000000,
   8065.000000,
   8070.000000,
   8075.000000,
   8080.000000,
   8085.000000,
   8090.000000,
   8095.000000,
   8100.000000,
   8105.000000,
   8110.000000,
   8115.000000,
   8120.000000,
   8125.000000,
   8130.000000,
   8135.000000,
   8140.000000,
   8145.000000,
   8150.000000,
   8155.000000,
   8160.000000,
   8165.000000,
   8170.000000,
   8175.000000,
   8180.000000,
   8185.000000,
   8190.000000,
   8195.000000,
   8200.000000,
   8205.000000,
   8210.000000,
   8215.000000,
   8220.000000,
   8225.000000,
   8230.000000,
   8235.000000,
   8240.000000,
   8245.000000,
   8250.000000,
   8255.000000,
   8260.000000,
   8265.000000,
   8270.000000,
   8275.000000,
   8280.000000,
   8285.000000,
   8290.000000,
   8295.000000,
   8300.000000,
   8305.000000,
   8310.000000,
   8315.000000,
   8320.000000,
   8325.000000,
   8330.000000,
   8335.000000,
   8340.000000,
   8345.000000,
   8350.000000,
   8355.000000,
   8360.000000,
   8365.000000,
   8370.000000,
   8375.000000,
   8380.000000,
   8385.000000,
   8390.000000,
   8395.000000,
   8400.000000,
   8405.000000,
   8410.000000,
   8415.000000,
   8420.000000,
   8425.000000,
   8430.000000,
   8435.000000,
   8440.000000,
   8445.000000,
   8450.000000,
   8455.000000,
   8460.000000,
   8465.000000,
   8470.000000,
   8475.000000,
   8480.000000,
   8485.000000,
   8490.000000,
   8495.000000,
   8500.000000,
   8505.000000,
   8510.000000,
   8515.000000,
   8520.000000,
   8525.000000,
   8530.000000,
   8535.000000,
   8540.000000,
   8545.000000,
   8550.000000,
   8555.000000,
   8560.000000,
   8565.000000,
   8570.000000,
   8575.000000,
   8580.000000,
   8585.000000,
   8590.000000,
   8595.000000,
   8600.000000,
   8605.000000,
   8610.000000,
   8615.000000,
   8620.000000,
   8625.000000,
   8630.000000,
   8635.000000,
   8640.000000,
   8645.000000,
   8650.000000,
   8655.000000,
   8660.000000,
   8665.000000,
   8670.000000,
   8675.000000,
   8680.000000,
   8685.000000,
   8690.000000,
   8695.000000,
   8700.000000,
   8705.000000,
   8710.000000,
   8715.000000,
   8720.000000,
   8725.000000,
   8730.000000,
   8735.000000,
   8740.000000,
   8745.000000,
   8750.000000,
   8755.000000,
   8760.000000,
   8765.000000,
   8770.000000,
   8775.000000,
   8780.000000,
   8785.000000,
   8790.000000,
   8795.000000,
   8800.000000,
   8805.000000,
   8810.000000,
   8815.000000,
   8820.000000,
   8825.000000,
   8830.000000,
   8835.000000,
   8840.000000,
   8845.000000,
   8850.000000,
   8855.000000,
   8860.000000,
   8865.000000,
   8870.000000,
   8875.000000,
   8880.000000,
   8885.000000,
   8890.000000,
   8895.000000,
   8900.000000,
   8905.000000,
   8910.000000,
   8915.000000,
   8920.000000,
   8925.000000,
   8930.000000,
   8935.000000,
   8940.000000,
   8945.000000,
   8950.000000,
   8955.000000,
   8960.000000,
   8965.000000,
   8970.000000,
   8975.000000,
   8980.000000,
   8985.000000,
   8990.000000,
   8995.000000,
   9000.000000,
   9005.000000,
   9010.000000,
   9015.000000,
   9020.000000,
   9025.000000,
   9030.000000,
   9035.000000,
   9040.000000,
   9045.000000,
   9050.000000,
   9055.000000,
   9060.000000,
   9065.000000,
   9070.000000,
   9075.000000,
   9080.000000,
   9085.000000,
   9090.000000,
   9095.000000,
   9100.000000,
   9105.000000,
   9110.000000,
   9115.000000,
   9120.000000,
   9125.000000,
   9130.000000,
   9135.000000,
   9140.000000,
   9145.000000,
   9150.000000,
   9155.000000,
   9160.000000,
   9165.000000,
   9170.000000,
   9175.000000,
   9180.000000,
   9185.000000,
   9190.000000,
   9195.000000,
   9200.000000,
   9205.000000,
   9210.000000,
   9215.000000,
   9220.000000,
   9225.000000,
   9230.000000,
   9235.000000,
   9240.000000,
   9245.000000,
   9250.000000,
   9255.000000,
   9260.000000,
   9265.000000,
   9270.000000,
   9275.000000,
   9280.000000,
   9285.000000,
   9290.000000,
   9295.000000,
   9300.000000,
   9305.000000,
   9310.000000,
   9315.000000,
   9320.000000,
   9325.000000,
   9330.000000,
   9335.000000,
   9340.000000,
   9345.000000,
   9350.000000,
   9355.000000,
   9360.000000,
   9365.000000,
   9370.000000,
   9375.000000,
   9380.000000,
   9385.000000,
   9390.000000,
   9395.000000,
   9400.000000,
   9405.000000,
   9410.000000,
   9415.000000,
   9420.000000,
   9425.000000,
   9430.000000,
   9435.000000,
   9440.000000,
   9445.000000,
   9450.000000,
   9455.000000,
   9460.000000,
   9465.000000,
   9470.000000,
   9475.000000,
   9480.000000,
   9485.000000,
   9490.000000,
   9495.000000,
   9500.000000,
   9505.000000,
   9510.000000,
   9515.000000,
   9520.000000,
   9525.000000,
   9530.000000,
   9535.000000,
   9540.000000,
   9545.000000,
   9550.000000,
   9555.000000,
   9560.000000,
   9565.000000,
   9570.000000,
   9575.000000,
   9580.000000,
   9585.000000,
   9590.000000,
   9595.000000,
   9600.000000,
   9605.000000,
   9610.000000,
   9615.000000,
   9620.000000,
   9625.000000,
   9630.000000,
   9635.000000,
   9640.000000,
   9645.000000,
   9650.000000,
   9655.000000,
   9660.000000,
   9665.000000,
   9670.000000,
   9675.000000,
   9680.000000,
   9685.000000,
   9690.000000,
   9695.000000,
   9700.000000,
   9705.000000,
   9710.000000,
   9715.000000,
   9720.000000,
   9725.000000,
   9730.000000,
   9735.000000,
   9740.000000,
   9745.000000,
   9750.000000,
   9755.000000,
   9760.000000,
   9765.000000,
   9770.000000,
   9775.000000,
   9780.000000,
   9785.000000,
   9790.000000,
   9795.000000,
   9800.000000,
   9805.000000,
   9810.000000,
   9815.000000,
   9820.000000,
   9825.000000,
   9830.000000,
   9835.000000,
   9840.000000,
   9845.000000,
   9850.000000,
   9855.000000,
   9860.000000,
   9865.000000,
   9870.000000,
   9875.000000,
   9880.000000,
   9885.000000,
   9890.000000,
   9895.000000,
   9900.000000,
   9905.000000,
   9910.000000,
   9915.000000,
   9920.000000,
   9925.000000,
   9930.000000,
   9935.000000,
   9940.000000,
   9945.000000,
   9950.000000,
   9955.000000,
   9960.000000,
   9965.000000,
   9970.000000,
   9975.000000,
   9980.000000,
   9985.000000,
   9990.000000,
   9995.000000,
   10000.000000,
   10005.000000,
   10010.000000,
   10015.000000,
   10020.000000,
   10025.000000,
   10030.000000,
   10035.000000,
   10040.000000,
   10045.000000,
   10050.000000,
   10055.000000,
   10060.000000,
   10065.000000,
   10070.000000,
   10075.000000,
   10080.000000,
   10085.000000,
   10090.000000,
   10095.000000,
   10100.000000,
   10105.000000,
   10110.000000,
   10115.000000,
   10120.000000,
   10125.000000,
   10130.000000,
   10135.000000,
   10140.000000,
   10145.000000,
   10150.000000,
   10155.000000,
   10160.000000,
   10165.000000,
   10170.000000,
   10175.000000,
   10180.000000,
   10185.000000,
   10190.000000,
   10195.000000,
   10200.000000,
   10205.000000,
   10210.000000,
   10215.000000,
   10220.000000,
   10225.000000,
   10230.000000,
   10235.000000,
   10240.000000,
   10245.000000,
   10250.000000,
   10255.000000,
   10260.000000,
   10265.000000,
   10270.000000,
   10275.000000,
   10280.000000,
   10285.000000,
   10290.000000,
   10295.000000,
   10300.000000,
   10305.000000,
   10310.000000,
   10315.000000,
   10320.000000,
   10325.000000,
   10330.000000,
   10335.000000,
   10340.000000,
   10345.000000,
   10350.000000,
   10355.000000,
   10360.000000,
   10365.000000,
   10370.000000,
   10375.000000,
   10380.000000,
   10385.000000,
   10390.000000,
   10395.000000,
   10400.000000,
   10405.000000,
   10410.000000,
   10415.000000,
   10420.000000,
   10425.000000,
   10430.000000,
   10435.000000,
   10440.000000,
   10445.000000,
   10450.000000,
   10455.000000,
   10460.000000,
   10465.000000,
   10470.000000,
   10475.000000,
   10480.000000,
   10485.000000,
   10490.000000,
   10495.000000,
   10500.000000,
   10505.000000,
   10510.000000,
   10515.000000,
   10520.000000,
   10525.000000,
   10530.000000,
   10535.000000,
   10540.000000,
   10545.000000,
   10550.000000,
   10555.000000,
   10560.000000,
   10565.000000,
   10570.000000,
   10575.000000,
   10580.000000,
   10585.000000,
   10590.000000,
   10595.000000,
   10600.000000,
   10605.000000,
   10610.000000,
   10615.000000,
   10620.000000
};

static double _g8iv_flux[] = {
   0.000000,
   0.000000,
   0.000000,
   0.000000,
   0.000000,
   0.000000,
   0.000000,
   0.000000,
   0.000000,
   0.000000,
   0.000000,
   0.000000,
   0.000000,
   0.000000,
   0.000000,
   0.000000,
   0.000000,
   0.000000,
   0.000000,
   0.000000,
   0.000000,
   0.000000,
   0.000000,
   0.000000,
   0.000000,
   0.000000,
   0.000000,
   0.000000,
   0.000000,
   0.000000,
   0.000000,
   0.000000,
   0.000000,
   0.000000,
   0.000000,
   0.000000,
   0.000000,
   0.000000,
   0.000000,
   0.000000,
   0.000000,
   0.000000,
   0.000000,
   0.000000,
   0.000000,
   0.000000,
   0.000000,
   0.000000,
   0.000000,
   0.000000,
   0.000000,
   0.000000,
   0.000000,
   0.000000,
   0.000000,
   0.000000,
   0.000000,
   0.000000,
   0.000000,
   0.000000,
   0.000000,
   0.000000,
   0.000000,
   0.000000,
   0.000000,
   0.000000,
   0.000000,
   0.000000,
   0.000000,
   0.000000,
   0.000000,
   0.000000,
   0.000000,
   0.000000,
   0.000000,
   0.000000,
   0.000000,
   0.000000,
   0.000000,
   0.000000,
   0.000000,
   0.000000,
   0.000000,
   0.000000,
   0.000000,
   0.000000,
   0.000000,
   0.000000,
   0.000000,
   0.000000,
   0.000000,
   0.000000,
   0.000000,
   0.000000,
   0.000000,
   0.000000,
   0.000000,
   0.000000,
   0.000000,
   0.000000,
   0.000000,
   0.000000,
   0.000000,
   0.000000,
   0.000000,
   0.000000,
   0.000000,
   0.000000,
   0.000000,
   0.000000,
   0.000000,
   0.000000,
   0.000000,
   0.000000,
   0.000000,
   0.000000,
   0.000000,
   0.000000,
   0.000000,
   0.000000,
   0.000000,
   0.000000,
   0.000000,
   0.000000,
   0.000000,
   0.000000,
   0.000000,
   0.000000,
   0.000000,
   0.000000,
   0.000000,
   0.000000,
   0.000000,
   0.000000,
   0.000000,
   0.000000,
   0.000000,
   0.000000,
   0.000000,
   0.000000,
   0.000000,
   0.000000,
   0.000000,
   0.000000,
   0.000000,
   0.000000,
   0.000000,
   0.000000,
   0.000000,
   0.000000,
   0.000000,
   0.000000,
   0.000000,
   0.000000,
   0.000000,
   0.000000,
   0.000000,
   0.000000,
   0.000000,
   0.000000,
   0.000000,
   0.000001,
   0.000001,
   0.000002,
   0.000003,
   0.000003,
   0.000003,
   0.000003,
   0.000003,
   0.000002,
   0.000000,
   0.000000,
   0.000000,
   0.000000,
   0.000000,
   0.000000,
   0.000000,
   0.000000,
   0.000000,
   0.000000,
   0.000000,
   0.000008,
   0.000017,
   0.000027,
   0.000035,
   0.000041,
   0.000044,
   0.000043,
   0.000036,
   0.000022,
   0.000000,
   0.000000,
   0.000000,
   0.000000,
   0.000000,
   0.000000,
   0.000000,
   0.000000,
   0.000000,
   0.000000,
   0.000000,
   0.000114,
   0.000257,
   0.000426,
   0.000618,
   0.000827,
   0.001049,
   0.001282,
   0.001521,
   0.001761,
   0.002000,
   0.002233,
   0.002460,
   0.002680,
   0.002893,
   0.003098,
   0.003296,
   0.003485,
   0.003666,
   0.003838,
   0.004000,
   0.004153,
   0.004295,
   0.004426,
   0.004547,
   0.004655,
   0.004751,
   0.004834,
   0.004903,
   0.004959,
   0.005000,
   0.005026,
   0.005040,
   0.005044,
   0.005041,
   0.005032,
   0.005020,
   0.005009,
   0.005000,
   0.004996,
   0.005000,
   0.005014,
   0.005040,
   0.005081,
   0.005139,
   0.005218,
   0.005319,
   0.005446,
   0.005599,
   0.005783,
   0.006000,
   0.006249,
   0.006521,
   0.006803,
   0.007082,
   0.007346,
   0.007583,
   0.007779,
   0.007922,
   0.008000,
   0.008000,
   0.007915,
   0.007764,
   0.007570,
   0.007356,
   0.007147,
   0.006966,
   0.006837,
   0.006784,
   0.006830,
   0.007000,
   0.007308,
   0.007734,
   0.008251,
   0.008829,
   0.009440,
   0.010056,
   0.010649,
   0.011189,
   0.011649,
   0.012000,
   0.012227,
   0.012371,
   0.012486,
   0.012625,
   0.012842,
   0.013193,
   0.013730,
   0.014507,
   0.015579,
   0.017000,
   0.018801,
   0.020925,
   0.023293,
   0.025825,
   0.028441,
   0.031061,
   0.033607,
   0.035999,
   0.038156,
   0.040000,
   0.041471,
   0.042591,
   0.043403,
   0.043949,
   0.044270,
   0.044410,
   0.044411,
   0.044315,
   0.044163,
   0.044000,
   0.043856,
   0.043725,
   0.043588,
   0.043429,
   0.043228,
   0.042970,
   0.042635,
   0.042207,
   0.041668,
   0.041000,
   0.040194,
   0.039276,
   0.038280,
   0.037240,
   0.036191,
   0.035166,
   0.034201,
   0.033328,
   0.032583,
   0.032000,
   0.031620,
   0.031515,
   0.031763,
   0.032443,
   0.033633,
   0.035413,
   0.037861,
   0.041056,
   0.045076,
   0.050000,
   0.055861,
   0.062505,
   0.069735,
   0.077350,
   0.085152,
   0.092942,
   0.100520,
   0.107689,
   0.114249,
   0.120000,
   0.124786,
   0.128616,
   0.131542,
   0.133614,
   0.134885,
   0.135404,
   0.135224,
   0.134396,
   0.132971,
   0.131000,
   0.128552,
   0.125766,
   0.122797,
   0.119801,
   0.116935,
   0.114354,
   0.112214,
   0.110671,
   0.109881,
   0.110000,
   0.111134,
   0.113192,
   0.116034,
   0.119517,
   0.123500,
   0.127844,
   0.132407,
   0.137048,
   0.141626,
   0.146000,
   0.150058,
   0.153800,
   0.157258,
   0.160461,
   0.163438,
   0.166221,
   0.168838,
   0.171321,
   0.173698,
   0.176000,
   0.178255,
   0.180487,
   0.182715,
   0.184961,
   0.187247,
   0.189592,
   0.192019,
   0.194549,
   0.197202,
   0.200000,
   0.202953,
   0.207761,
   0.204411,
   0.205905,
   0.214442,
   0.221815,
   0.220921,
   0.219478,
   0.225488,
   0.236521,
   0.238836,
   0.231022,
   0.218072,
   0.207683,
   0.205253,
   0.204289,
   0.198499,
   0.194284,
   0.199555,
   0.215548,
   0.239846,
   0.262088,
   0.272451,
   0.271225,
   0.262676,
   0.256886,
   0.262489,
   0.276530,
   0.292557,
   0.301737,
   0.297849,
   0.287525,
   0.279135,
   0.275168,
   0.275797,
   0.277814,
   0.278487,
   0.280352,
   0.285600,
   0.289755,
   0.287330,
   0.275458,
   0.255269,
   0.241261,
   0.245724,
   0.258756,
   0.268248,
   0.275471,
   0.283701,
   0.290856,
   0.294092,
   0.292890,
   0.288705,
   0.288572,
   0.296386,
   0.297891,
   0.281074,
   0.261032,
   0.255151,
   0.262861,
   0.277679,
   0.287443,
   0.283496,
   0.276902,
   0.278824,
   0.281129,
   0.275730,
   0.274022,
   0.287387,
   0.307660,
   0.322903,
   0.325625,
   0.313527,
   0.300629,
   0.301220,
   0.314345,
   0.333942,
   0.348756,
   0.349230,
   0.337782,
   0.320109,
   0.303056,
   0.290876,
   0.276304,
   0.253707,
   0.235511,
   0.235834,
   0.257508,
   0.295917,
   0.327940,
   0.327802,
   0.310410,
   0.327542,
   0.358972,
   0.383296,
   0.386962,
   0.375855,
   0.368282,
   0.377383,
   0.397919,
   0.408662,
   0.391565,
   0.351430,
   0.315257,
   0.312010,
   0.349180,
   0.404041,
   0.439190,
   0.431564,
   0.388278,
   0.338482,
   0.310840,
   0.313789,
   0.333668,
   0.351106,
   0.356827,
   0.354090,
   0.350484,
   0.348696,
   0.345931,
   0.342028,
   0.343935,
   0.360424,
   0.392250,
   0.426992,
   0.445780,
   0.438076,
   0.409743,
   0.377906,
   0.357883,
   0.352138,
   0.350134,
   0.338962,
   0.313622,
   0.279356,
   0.247150,
   0.226986,
   0.223445,
   0.235049,
   0.254941,
   0.272753,
   0.279004,
   0.271329,
   0.258782,
   0.258049,
   0.281732,
   0.328304,
   0.381679,
   0.421594,
   0.437793,
   0.434459,
   0.420905,
   0.400339,
   0.368083,
   0.321739,
   0.274419,
   0.253055,
   0.277518,
   0.339646,
   0.401296,
   0.417658,
   0.373902,
   0.303149,
   0.265380,
   0.305214,
   0.419490,
   0.557741,
   0.658680,
   0.694554,
   0.684052,
   0.669460,
   0.680371,
   0.711424,
   0.732168,
   0.720056,
   0.681853,
   0.646593,
   0.639714,
   0.659847,
   0.679549,
   0.672391,
   0.638682,
   0.606890,
   0.611184,
   0.662002,
   0.733814,
   0.784254,
   0.786820,
   0.748793,
   0.703292,
   0.682397,
   0.692136,
   0.712240,
   0.718584,
   0.704822,
   0.686766,
   0.687180,
   0.713483,
   0.750295,
   0.773451,
   0.769579,
   0.745176,
   0.719005,
   0.704436,
   0.699385,
   0.693479,
   0.682022,
   0.673098,
   0.681284,
   0.712319,
   0.754235,
   0.785181,
   0.789571,
   0.769459,
   0.742698,
   0.728586,
   0.733643,
   0.749828,
   0.763413,
   0.765643,
   0.757443,
   0.745518,
   0.734865,
   0.725480,
   0.713972,
   0.697016,
   0.673760,
   0.646148,
   0.618501,
   0.597451,
   0.590956,
   0.605493,
   0.642213,
   0.694547,
   0.750075,
   0.795770,
   0.822777,
   0.828854,
   0.818232,
   0.799768,
   0.784473,
   0.781499,
   0.793175,
   0.812108,
   0.823779,
   0.815963,
   0.789862,
   0.762208,
   0.755104,
   0.780231,
   0.828335,
   0.873761,
   0.893863,
   0.886071,
   0.868466,
   0.864580,
   0.883654,
   0.912440,
   0.928172,
   0.919904,
   0.898506,
   0.888086,
   0.905218,
   0.942692,
   0.974757,
   0.979232,
   0.955913,
   0.927217,
   0.920338,
   0.943956,
   0.980618,
   1.002003,
   0.991362,
   0.956032,
   0.921394,
   0.910362,
   0.926340,
   0.954580,
   0.976608,
   0.984552,
   0.984782,
   0.988403,
   0.998708,
   1.008947,
   1.010294,
   1.001347,
   0.990759,
   0.989855,
   1.002067,
   1.020512,
   1.034504,
   1.038149,
   1.033880,
   1.027885,
   1.022739,
   1.016344,
   1.006984,
   0.997879,
   0.995688,
   1.002624,
   1.010808,
   1.007768,
   0.988498,
   0.963056,
   0.951534,
   0.966873,
   1.000682,
   1.028080,
   1.027465,
   0.998644,
   0.964543,
   0.952313,
   0.969210,
   0.998069,
   1.014331,
   1.008417,
   0.994832,
   0.997867,
   1.025782,
   1.061099,
   1.074971,
   1.051982,
   1.005321,
   0.967465,
   0.962656,
   0.988493,
   1.021120,
   1.036260,
   1.028694,
   1.013531,
   1.008363,
   1.016780,
   1.027899,
   1.028993,
   1.019020,
   1.009539,
   1.011106,
   1.021056,
   1.024971,
   1.009573,
   0.976230,
   0.942336,
   0.927327,
   0.937221,
   0.961428,
   0.982392,
   0.989886,
   0.987953,
   0.987469,
   0.993759,
   1.001476,
   1.000033,
   0.984701,
   0.963368,
   0.950987,
   0.957361,
   0.979665,
   1.004911,
   1.020157,
   1.022314,
   1.018335,
   1.016919,
   1.020611,
   1.024296,
   1.020686,
   1.007868,
   0.991057,
   0.977635,
   0.971099,
   0.968906,
   0.965628,
   0.958537,
   0.949871,
   0.944259,
   0.944718,
   0.950682,
   0.959187,
   0.967655,
   0.975271,
   0.981905,
   0.986898,
   0.989136,
   0.988331,
   0.986086,
   0.984792,
   0.985438,
   0.986480,
   0.985015,
   0.979515,
   0.971671,
   0.965279,
   0.962877,
   0.963325,
   0.962370,
   0.956146,
   0.945310,
   0.935781,
   0.934359,
   0.942638,
   0.953656,
   0.954472,
   0.934869,
   0.896442,
   0.854174,
   0.828573,
   0.833397,
   0.866604,
   0.911169,
   0.946608,
   0.961493,
   0.958092,
   0.947777,
   0.941632,
   0.943802,
   0.952557,
   0.965251,
   0.980635,
   0.996934,
   1.008619,
   1.007231,
   0.988272,
   0.957882,
   0.931831,
   0.926367,
   0.946649,
   0.981807,
   1.012514,
   1.025011,
   1.019614,
   1.008447,
   1.004586,
   1.010957,
   1.019120,
   1.018324,
   1.005477,
   0.988396,
   0.980077,
   0.988022,
   1.007844,
   1.026860,
   1.033470,
   1.025264,
   1.010408,
   1.000964,
   1.003365,
   1.013863,
   1.021923,
   1.018262,
   1.002081,
   0.982373,
   0.971346,
   0.975557,
   0.991474,
   1.008065,
   1.014706,
   1.009083,
   0.998380,
   0.992902,
   0.997949,
   1.009819,
   1.018790,
   1.017337,
   1.006423,
   0.994304,
   0.989596,
   0.994401,
   1.002694,
   1.005693,
   0.999675,
   0.988801,
   0.981218,
   0.982439,
   0.991252,
   1.001646,
   1.008988,
   1.013590,
   1.018811,
   1.026379,
   1.033336,
   1.034079,
   1.026195,
   1.013289,
   1.002178,
   0.997102,
   0.995853,
   0.992055,
   0.982155,
   0.969787,
   0.963261,
   0.968690,
   0.984226,
   1.000700,
   1.009179,
   1.007783,
   1.002111,
   0.999758,
   1.003472,
   1.008945,
   1.009560,
   1.003071,
   0.993883,
   0.989670,
   0.995071,
   1.007389,
   1.018332,
   1.019981,
   1.009847,
   0.992183,
   0.975228,
   0.966348,
   0.968512,
   0.979780,
   0.995032,
   1.008587,
   1.016523,
   1.017940,
   1.014702,
   1.010131,
   1.007151,
   1.006955,
   1.008767,
   1.010583,
   1.010567,
   1.008021,
   1.003423,
   0.998021,
   0.993336,
   0.990678,
   0.991110,
   0.995201,
   1.002701,
   1.012364,
   1.022050,
   1.029238,
   1.031834,
   1.028911,
   1.021212,
   1.011248,
   1.002786,
   0.999551,
   0.992662,
   1.000945,
   1.010897,
   1.015017,
   1.008301,
   0.992459,
   0.962081,
   0.929492,
   0.921417,
   0.974288,
   0.964296,
   0.986432,
   0.986446,
   0.995866,
   1.000196,
   1.004757,
   0.999940,
   0.999132,
   0.992963,
   0.983148,
   0.980035,
   0.986703,
   0.995691,
   0.992698,
   0.988228,
   0.984826,
   0.979269,
   0.978785,
   0.985712,
   0.987025,
   0.979788,
   0.982870,
   0.974073,
   0.968331,
   0.988596,
   0.993412,
   1.000905,
   0.996961,
   1.002946,
   1.004470,
   0.998615,
   0.999379,
   0.992255,
   0.992804,
   0.987190,
   0.976646,
   0.971494,
   0.970041,
   0.978499,
   0.969919,
   0.958688,
   0.972888,
   0.976661,
   0.956453,
   0.957406,
   0.961027,
   0.951099,
   0.939061,
   0.958770,
   0.954484,
   0.946967,
   0.935473,
   0.925305,
   0.935176,
   0.944305,
   0.960276,
   0.958974,
   0.954412,
   0.964859,
   0.968397,
   0.971099,
   0.963464,
   0.943729,
   0.939024,
   0.943432,
   0.933085,
   0.942360,
   0.946838,
   0.941447,
   0.945560,
   0.940778,
   0.944299,
   0.949760,
   0.953233,
   0.946940,
   0.926286,
   0.940743,
   0.941771,
   0.934987,
   0.923978,
   0.929742,
   0.940114,
   0.926822,
   0.933833,
   0.948483,
   0.951660,
   0.943923,
   0.940578,
   0.946293,
   0.949885,
   0.946613,
   0.935976,
   0.938418,
   0.951443,
   0.954811,
   0.951631,
   0.953770,
   0.953111,
   0.948615,
   0.936959,
   0.937588,
   0.930312,
   0.931387,
   0.929688,
   0.935279,
   0.935241,
   0.937909,
   0.936163,
   0.942602,
   0.925855,
   0.926766,
   0.924991,
   0.924093,
   0.927041,
   0.929620,
   0.931118,
   0.925438,
   0.916582,
   0.880750,
   0.888465,
   0.917217,
   0.927227,
   0.926701,
   0.921299,
   0.926151,
   0.917244,
   0.913273,
   0.915167,
   0.910875,
   0.905420,
   0.887031,
   0.838891,
   0.805709,
   0.861564,
   0.880219,
   0.907920,
   0.918797,
   0.920124,
   0.912318,
   0.908810,
   0.903972,
   0.903387,
   0.916313,
   0.923024,
   0.915554,
   0.905328,
   0.894472,
   0.899670,
   0.902886,
   0.917621,
   0.925385,
   0.923488,
   0.915215,
   0.918000,
   0.912698,
   0.909037,
   0.915340,
   0.916584,
   0.911158,
   0.906919,
   0.906117,
   0.903327,
   0.895171,
   0.898059,
   0.902312,
   0.903462,
   0.908977,
   0.909386,
   0.910914,
   0.908130,
   0.906166,
   0.907556,
   0.905030,
   0.897440,
   0.910403,
   0.915018,
   0.910092,
   0.907785,
   0.901334,
   0.897774,
   0.899269,
   0.904731,
   0.913863,
   0.916760,
   0.915058,
   0.902506,
   0.889462,
   0.882018,
   0.881826,
   0.886884,
   0.892696,
   0.894660,
   0.891294,
   0.884578,
   0.878241,
   0.875275,
   0.875970,
   0.878243,
   0.878875,
   0.876101,
   0.871327,
   0.867700,
   0.868258,
   0.873439,
   0.880367,
   0.886122,
   0.888837,
   0.889038,
   0.888422,
   0.887497,
   0.885753,
   0.881777,
   0.877163,
   0.876450,
   0.872284,
   0.877704,
   0.896213,
   0.894398,
   0.883662,
   0.863679,
   0.845248,
   0.845871,
   0.849173,
   0.873235,
   0.877167,
   0.882687,
   0.871396,
   0.859502,
   0.862361,
   0.864660,
   0.869697,
   0.879001,
   0.874186,
   0.868654,
   0.861976,
   0.858420,
   0.853940,
   0.861785,
   0.868367,
   0.868650,
   0.857451,
   0.839562,
   0.830354,
   0.830098,
   0.839974,
   0.855703,
   0.875148,
   0.882540,
   0.875320,
   0.867654,
   0.871822,
   0.872135,
   0.863862,
   0.861650,
   0.851987,
   0.838040,
   0.820423,
   0.808707,
   0.812027,
   0.806093,
   0.799195,
   0.809880,
   0.833144,
   0.848449,
   0.865159,
   0.874515,
   0.855012,
   0.841135,
   0.817422,
   0.806573,
   0.807122,
   0.817532,
   0.827379,
   0.835783,
   0.818504,
   0.804349,
   0.799456,
   0.788496,
   0.808713,
   0.830132,
   0.825104,
   0.822892,
   0.820642,
   0.818152,
   0.822932,
   0.829337,
   0.835408,
   0.836894,
   0.825145,
   0.814761,
   0.802219,
   0.798393,
   0.787473,
   0.788333,
   0.795544,
   0.813949,
   0.829119,
   0.842128,
   0.844061,
   0.823205,
   0.792113,
   0.775244,
   0.779243,
   0.805588,
   0.827512,
   0.840701,
   0.832811,
   0.809071,
   0.786569,
   0.782158,
   0.787075,
   0.788936,
   0.796816,
   0.814677,
   0.820064,
   0.828108,
   0.826723,
   0.813052,
   0.795856,
   0.792259,
   0.789928,
   0.784984,
   0.790593,
   0.794766,
   0.788656,
   0.791469,
   0.793372,
   0.795620,
   0.793386,
   0.795506,
   0.797193,
   0.795697,
   0.789902,
   0.781947,
   0.777878,
   0.784469,
   0.802183,
   0.822368,
   0.832072,
   0.822737,
   0.797191,
   0.768525,
   0.751948,
   0.753618,
   0.766944,
   0.778848,
   0.779601,
   0.768998,
   0.755129,
   0.746999,
   0.747617,
   0.753420,
   0.758452,
   0.759167,
   0.756525,
   0.754122,
   0.754675,
   0.757749,
   0.761023,
   0.763234,
   0.764178,
   0.764848,
   0.765866,
   0.766702,
   0.766187,
   0.766157,
   0.765560,
   0.761514,
   0.747972,
   0.744479,
   0.753530,
   0.756085,
   0.762299,
   0.763851,
   0.763125,
   0.762929,
   0.759915,
   0.756639,
   0.753336,
   0.750012,
   0.754287,
   0.757443,
   0.764698,
   0.767390,
   0.766617,
   0.758294,
   0.752243,
   0.757520,
   0.763285,
   0.762416,
   0.760831,
   0.759807,
   0.752790,
   0.747396,
   0.746503,
   0.748262,
   0.751481,
   0.748135,
   0.738029,
   0.731023,
   0.726226,
   0.728472,
   0.725539,
   0.729445,
   0.725873,
   0.715136,
   0.704329,
   0.697964,
   0.696798,
   0.708157,
   0.717946,
   0.719724,
   0.726295,
   0.727139,
   0.728229,
   0.728657,
   0.728706,
   0.725446,
   0.718791,
   0.712054,
   0.716394,
   0.715062,
   0.722388,
   0.724953,
   0.721719,
   0.719024,
   0.721534,
   0.720141,
   0.712203,
   0.711864,
   0.719368,
   0.719078,
   0.720498,
   0.715189,
   0.709507,
   0.705320,
   0.701169,
   0.698404,
   0.694003,
   0.694556,
   0.701619,
   0.703213,
   0.704972,
   0.710476,
   0.711481,
   0.709599,
   0.706816,
   0.706803,
   0.701530,
   0.700997,
   0.699174,
   0.694909,
   0.687175,
   0.696448,
   0.691757,
   0.678699,
   0.681642,
   0.682199,
   0.676341,
   0.680801,
   0.695359,
   0.697564,
   0.696409,
   0.692949,
   0.684562,
   0.666109,
   0.681670,
   0.693178,
   0.693597,
   0.697755,
   0.693607,
   0.693049,
   0.694015,
   0.688624,
   0.677351,
   0.676653,
   0.675918,
   0.669847,
   0.665937,
   0.666896,
   0.664004,
   0.665751,
   0.663803,
   0.659320,
   0.658552,
   0.654513,
   0.651555,
   0.652975,
   0.657988,
   0.664221,
   0.667316,
   0.665690,
   0.665244,
   0.666056,
   0.663808,
   0.660624,
   0.657707,
   0.660749,
   0.668560,
   0.668474,
   0.668707,
   0.666050,
   0.664023,
   0.660880,
   0.654298,
   0.651727,
   0.648970,
   0.653301,
   0.662525,
   0.668960,
   0.671541,
   0.671482,
   0.667825,
   0.663211,
   0.667951,
   0.668972,
   0.666076,
   0.656293,
   0.629994,
   0.607192,
   0.640616,
   0.656329,
   0.658913,
   0.663157,
   0.648379,
   0.621442,
   0.583153,
   0.534194,
   0.534776,
   0.600279,
   0.630926,
   0.650473,
   0.656688,
   0.654262,
   0.653657,
   0.650626,
   0.651198,
   0.653370,
   0.648870,
   0.649007,
   0.649088,
   0.645964,
   0.645314,
   0.648100,
   0.650841,
   0.651589,
   0.652334,
   0.649751,
   0.636761,
   0.619159,
   0.592227,
   0.547160,
   0.550596,
   0.591881,
   0.616185,
   0.631363,
   0.633984,
   0.630954,
   0.637232,
   0.634584,
   0.642370,
   0.644151,
   0.645430,
   0.647708,
   0.643560,
   0.639175,
   0.639225,
   0.640048,
   0.642707,
   0.641926,
   0.634261,
   0.630187,
   0.625202,
   0.622707,
   0.624786,
   0.630220,
   0.630475,
   0.623990,
   0.618360,
   0.621148,
   0.610799,
   0.615845,
   0.633024,
   0.635701,
   0.630934,
   0.633768,
   0.632991,
   0.631625,
   0.635222,
   0.635684,
   0.632944,
   0.624080,
   0.617752,
   0.615215,
   0.615141,
   0.614773,
   0.619622,
   0.623036,
   0.625224,
   0.626864,
   0.631396,
   0.628190,
   0.627262,
   0.624605,
   0.622261,
   0.622563,
   0.623152,
   0.625304,
   0.618122,
   0.620096,
   0.625561,
   0.625665,
   0.619067,
   0.618927,
   0.616454,
   0.615071,
   0.605942,
   0.589336,
   0.605584,
   0.599271,
   0.596677,
   0.591523,
   0.590938,
   0.596491,
   0.608589,
   0.620673,
   0.635108,
   0.637501,
   0.636827,
   0.634691,
   0.633681,
   0.629553,
   0.624148,
   0.612793,
   0.607656,
   0.602905,
   0.596052,
   0.593894,
   0.602841,
   0.596885,
   0.600982,
   0.605194,
   0.608879,
   0.607701,
   0.618860,
   0.609118,
   0.595877,
   0.599929,
   0.603112,
   0.591644,
   0.580411,
   0.587922,
   0.593986,
   0.585373,
   0.572806,
   0.582302,
   0.589830,
   0.593538,
   0.589845,
   0.592395,
   0.587954,
   0.582935,
   0.579232,
   0.582952,
   0.584903,
   0.580050,
   0.577608,
   0.575782,
   0.572568,
   0.575085,
   0.577381,
   0.584348,
   0.595739,
   0.602025,
   0.600360,
   0.595150,
   0.595522,
   0.596888,
   0.593527,
   0.588847,
   0.584770,
   0.575778,
   0.566680,
   0.553508,
   0.556264,
   0.560858,
   0.554451,
   0.551455,
   0.538008,
   0.551397,
   0.537863,
   0.538274,
   0.549978,
   0.542961,
   0.561694,
   0.566158,
   0.586817,
   0.605407,
   0.621760,
   0.613735,
   0.607289,
   0.592255,
   0.581670,
   0.573241,
   0.561935,
   0.542560,
   0.552465,
   0.530240,
   0.537881,
   0.551397,
   0.546004,
   0.543558,
   0.552269,
   0.560193,
   0.553789,
   0.549946,
   0.553088,
   0.566073,
   0.552137,
   0.544037,
   0.556551,
   0.572241,
   0.567121,
   0.556220,
   0.563469,
   0.574700,
   0.584460,
   0.577362,
   0.563801,
   0.565843,
   0.557381,
   0.554482,
   0.549201,
   0.544605,
   0.554877,
   0.541075,
   0.540977,
   0.529353,
   0.529168,
   0.534014,
   0.532090,
   0.536749,
   0.540209,
   0.539346,
   0.543090,
   0.546426,
   0.543056,
   0.540722,
   0.541441,
   0.540567,
   0.540224,
   0.535494,
   0.531521,
   0.531289,
   0.530978,
   0.528605,
   0.525705,
   0.524892,
   0.524125,
   0.519771,
   0.518496,
   0.526458,
   0.526784,
   0.523600,
   0.522960,
   0.519479,
   0.509394,
   0.503014,
   0.502186,
   0.503265,
   0.503503,
   0.508741,
   0.507682,
   0.512601,
   0.513279,
   0.513255,
   0.513732,
   0.513799,
   0.516026,
   0.519496,
   0.512928,
   0.516348,
   0.515779,
   0.515956,
   0.513806,
   0.511488,
   0.509388,
   0.509411,
   0.510293,
   0.510540,
   0.510920,
   0.500908,
   0.511157,
   0.505848,
   0.504081,
   0.508893,
   0.514973,
   0.514407,
   0.508929,
   0.507387,
   0.504475,
   0.504454,
   0.503971,
   0.506594,
   0.507193,
   0.506576,
   0.511136,
   0.508182,
   0.501838,
   0.499684,
   0.504704,
   0.499458,
   0.504702,
   0.511108,
   0.509914,
   0.507324,
   0.505730,
   0.503548,
   0.500542,
   0.501054,
   0.506739,
   0.505854,
   0.498595,
   0.506745,
   0.508050,
   0.508492,
   0.506705,
   0.506987,
   0.499433,
   0.494517,
   0.495580,
   0.484064,
   0.493198,
   0.494751,
   0.496151,
   0.498405,
   0.495128,
   0.499539,
   0.501280,
   0.500205,
   0.494373,
   0.495855,
   0.497556,
   0.490333,
   0.493630,
   0.497590,
   0.493876,
   0.494637,
   0.492054,
   0.486888,
   0.485424,
   0.477320,
   0.494868,
   0.485177,
   0.479900,
   0.486938,
   0.486455,
   0.485793,
   0.484998,
   0.484114,
   0.483195,
   0.482327,
   0.481600,
   0.481108,
   0.480918,
   0.480999,
   0.481296,
   0.481751,
   0.482288,
   0.482740,
   0.482916,
   0.482625,
   0.481770,
   0.480624,
   0.479558,
   0.478940,
   0.479003,
   0.479440,
   0.479809,
   0.479665,
   0.478712,
   0.477243,
   0.475695,
   0.474506,
   0.473999,
   0.474034,
   0.474354,
   0.474704,
   0.474880,
   0.474884,
   0.474773,
   0.474602,
   0.474403,
   0.474122,
   0.473679,
   0.472999,
   0.472065,
   0.471108,
   0.470421,
   0.470296,
   0.470892,
   0.471828,
   0.472586,
   0.472650,
   0.471676,
   0.470010,
   0.468171,
   0.466679,
   0.465916,
   0.465720,
   0.465795,
   0.465846,
   0.465660,
   0.465349,
   0.465106,
   0.465124,
   0.465509,
   0.466011,
   0.466297,
   0.466028,
   0.464998,
   0.463508,
   0.461987,
   0.460865,
   0.460446,
   0.460535,
   0.460811,
   0.460954,
   0.460707,
   0.460058,
   0.459059,
   0.457763,
   0.456252,
   0.454735,
   0.453454,
   0.452648,
   0.452474,
   0.452747,
   0.453200,
   0.453563,
   0.453627,
   0.453424,
   0.453041,
   0.452569
};

#endif
