#ifndef _O5V_H_
#define _O5V_H_

/* spectrum for o5v star           */
/* number of elements = 1895       */

static double _o5v_lambda[] = {
   1150.000000,
   1155.000000,
   1160.000000,
   1165.000000,
   1170.000000,
   1175.000000,
   1180.000000,
   1185.000000,
   1190.000000,
   1195.000000,
   1200.000000,
   1205.000000,
   1210.000000,
   1215.000000,
   1220.000000,
   1225.000000,
   1230.000000,
   1235.000000,
   1240.000000,
   1245.000000,
   1250.000000,
   1255.000000,
   1260.000000,
   1265.000000,
   1270.000000,
   1275.000000,
   1280.000000,
   1285.000000,
   1290.000000,
   1295.000000,
   1300.000000,
   1305.000000,
   1310.000000,
   1315.000000,
   1320.000000,
   1325.000000,
   1330.000000,
   1335.000000,
   1340.000000,
   1345.000000,
   1350.000000,
   1355.000000,
   1360.000000,
   1365.000000,
   1370.000000,
   1375.000000,
   1380.000000,
   1385.000000,
   1390.000000,
   1395.000000,
   1400.000000,
   1405.000000,
   1410.000000,
   1415.000000,
   1420.000000,
   1425.000000,
   1430.000000,
   1435.000000,
   1440.000000,
   1445.000000,
   1450.000000,
   1455.000000,
   1460.000000,
   1465.000000,
   1470.000000,
   1475.000000,
   1480.000000,
   1485.000000,
   1490.000000,
   1495.000000,
   1500.000000,
   1505.000000,
   1510.000000,
   1515.000000,
   1520.000000,
   1525.000000,
   1530.000000,
   1535.000000,
   1540.000000,
   1545.000000,
   1550.000000,
   1555.000000,
   1560.000000,
   1565.000000,
   1570.000000,
   1575.000000,
   1580.000000,
   1585.000000,
   1590.000000,
   1595.000000,
   1600.000000,
   1605.000000,
   1610.000000,
   1615.000000,
   1620.000000,
   1625.000000,
   1630.000000,
   1635.000000,
   1640.000000,
   1645.000000,
   1650.000000,
   1655.000000,
   1660.000000,
   1665.000000,
   1670.000000,
   1675.000000,
   1680.000000,
   1685.000000,
   1690.000000,
   1695.000000,
   1700.000000,
   1705.000000,
   1710.000000,
   1715.000000,
   1720.000000,
   1725.000000,
   1730.000000,
   1735.000000,
   1740.000000,
   1745.000000,
   1750.000000,
   1755.000000,
   1760.000000,
   1765.000000,
   1770.000000,
   1775.000000,
   1780.000000,
   1785.000000,
   1790.000000,
   1795.000000,
   1800.000000,
   1805.000000,
   1810.000000,
   1815.000000,
   1820.000000,
   1825.000000,
   1830.000000,
   1835.000000,
   1840.000000,
   1845.000000,
   1850.000000,
   1855.000000,
   1860.000000,
   1865.000000,
   1870.000000,
   1875.000000,
   1880.000000,
   1885.000000,
   1890.000000,
   1895.000000,
   1900.000000,
   1905.000000,
   1910.000000,
   1915.000000,
   1920.000000,
   1925.000000,
   1930.000000,
   1935.000000,
   1940.000000,
   1945.000000,
   1950.000000,
   1955.000000,
   1960.000000,
   1965.000000,
   1970.000000,
   1975.000000,
   1980.000000,
   1985.000000,
   1990.000000,
   1995.000000,
   2000.000000,
   2005.000000,
   2010.000000,
   2015.000000,
   2020.000000,
   2025.000000,
   2030.000000,
   2035.000000,
   2040.000000,
   2045.000000,
   2050.000000,
   2055.000000,
   2060.000000,
   2065.000000,
   2070.000000,
   2075.000000,
   2080.000000,
   2085.000000,
   2090.000000,
   2095.000000,
   2100.000000,
   2105.000000,
   2110.000000,
   2115.000000,
   2120.000000,
   2125.000000,
   2130.000000,
   2135.000000,
   2140.000000,
   2145.000000,
   2150.000000,
   2155.000000,
   2160.000000,
   2165.000000,
   2170.000000,
   2175.000000,
   2180.000000,
   2185.000000,
   2190.000000,
   2195.000000,
   2200.000000,
   2205.000000,
   2210.000000,
   2215.000000,
   2220.000000,
   2225.000000,
   2230.000000,
   2235.000000,
   2240.000000,
   2245.000000,
   2250.000000,
   2255.000000,
   2260.000000,
   2265.000000,
   2270.000000,
   2275.000000,
   2280.000000,
   2285.000000,
   2290.000000,
   2295.000000,
   2300.000000,
   2305.000000,
   2310.000000,
   2315.000000,
   2320.000000,
   2325.000000,
   2330.000000,
   2335.000000,
   2340.000000,
   2345.000000,
   2350.000000,
   2355.000000,
   2360.000000,
   2365.000000,
   2370.000000,
   2375.000000,
   2380.000000,
   2385.000000,
   2390.000000,
   2395.000000,
   2400.000000,
   2405.000000,
   2410.000000,
   2415.000000,
   2420.000000,
   2425.000000,
   2430.000000,
   2435.000000,
   2440.000000,
   2445.000000,
   2450.000000,
   2455.000000,
   2460.000000,
   2465.000000,
   2470.000000,
   2475.000000,
   2480.000000,
   2485.000000,
   2490.000000,
   2495.000000,
   2500.000000,
   2505.000000,
   2510.000000,
   2515.000000,
   2520.000000,
   2525.000000,
   2530.000000,
   2535.000000,
   2540.000000,
   2545.000000,
   2550.000000,
   2555.000000,
   2560.000000,
   2565.000000,
   2570.000000,
   2575.000000,
   2580.000000,
   2585.000000,
   2590.000000,
   2595.000000,
   2600.000000,
   2605.000000,
   2610.000000,
   2615.000000,
   2620.000000,
   2625.000000,
   2630.000000,
   2635.000000,
   2640.000000,
   2645.000000,
   2650.000000,
   2655.000000,
   2660.000000,
   2665.000000,
   2670.000000,
   2675.000000,
   2680.000000,
   2685.000000,
   2690.000000,
   2695.000000,
   2700.000000,
   2705.000000,
   2710.000000,
   2715.000000,
   2720.000000,
   2725.000000,
   2730.000000,
   2735.000000,
   2740.000000,
   2745.000000,
   2750.000000,
   2755.000000,
   2760.000000,
   2765.000000,
   2770.000000,
   2775.000000,
   2780.000000,
   2785.000000,
   2790.000000,
   2795.000000,
   2800.000000,
   2805.000000,
   2810.000000,
   2815.000000,
   2820.000000,
   2825.000000,
   2830.000000,
   2835.000000,
   2840.000000,
   2845.000000,
   2850.000000,
   2855.000000,
   2860.000000,
   2865.000000,
   2870.000000,
   2875.000000,
   2880.000000,
   2885.000000,
   2890.000000,
   2895.000000,
   2900.000000,
   2905.000000,
   2910.000000,
   2915.000000,
   2920.000000,
   2925.000000,
   2930.000000,
   2935.000000,
   2940.000000,
   2945.000000,
   2950.000000,
   2955.000000,
   2960.000000,
   2965.000000,
   2970.000000,
   2975.000000,
   2980.000000,
   2985.000000,
   2990.000000,
   2995.000000,
   3000.000000,
   3005.000000,
   3010.000000,
   3015.000000,
   3020.000000,
   3025.000000,
   3030.000000,
   3035.000000,
   3040.000000,
   3045.000000,
   3050.000000,
   3055.000000,
   3060.000000,
   3065.000000,
   3070.000000,
   3075.000000,
   3080.000000,
   3085.000000,
   3090.000000,
   3095.000000,
   3100.000000,
   3105.000000,
   3110.000000,
   3115.000000,
   3120.000000,
   3125.000000,
   3130.000000,
   3135.000000,
   3140.000000,
   3145.000000,
   3150.000000,
   3155.000000,
   3160.000000,
   3165.000000,
   3170.000000,
   3175.000000,
   3180.000000,
   3185.000000,
   3190.000000,
   3195.000000,
   3200.000000,
   3205.000000,
   3210.000000,
   3215.000000,
   3220.000000,
   3225.000000,
   3230.000000,
   3235.000000,
   3240.000000,
   3245.000000,
   3250.000000,
   3255.000000,
   3260.000000,
   3265.000000,
   3270.000000,
   3275.000000,
   3280.000000,
   3285.000000,
   3290.000000,
   3295.000000,
   3300.000000,
   3305.000000,
   3310.000000,
   3315.000000,
   3320.000000,
   3325.000000,
   3330.000000,
   3335.000000,
   3340.000000,
   3345.000000,
   3350.000000,
   3355.000000,
   3360.000000,
   3365.000000,
   3370.000000,
   3375.000000,
   3380.000000,
   3385.000000,
   3390.000000,
   3395.000000,
   3400.000000,
   3405.000000,
   3410.000000,
   3415.000000,
   3420.000000,
   3425.000000,
   3430.000000,
   3435.000000,
   3440.000000,
   3445.000000,
   3450.000000,
   3455.000000,
   3460.000000,
   3465.000000,
   3470.000000,
   3475.000000,
   3480.000000,
   3485.000000,
   3490.000000,
   3495.000000,
   3500.000000,
   3505.000000,
   3510.000000,
   3515.000000,
   3520.000000,
   3525.000000,
   3530.000000,
   3535.000000,
   3540.000000,
   3545.000000,
   3550.000000,
   3555.000000,
   3560.000000,
   3565.000000,
   3570.000000,
   3575.000000,
   3580.000000,
   3585.000000,
   3590.000000,
   3595.000000,
   3600.000000,
   3605.000000,
   3610.000000,
   3615.000000,
   3620.000000,
   3625.000000,
   3630.000000,
   3635.000000,
   3640.000000,
   3645.000000,
   3650.000000,
   3655.000000,
   3660.000000,
   3665.000000,
   3670.000000,
   3675.000000,
   3680.000000,
   3685.000000,
   3690.000000,
   3695.000000,
   3700.000000,
   3705.000000,
   3710.000000,
   3715.000000,
   3720.000000,
   3725.000000,
   3730.000000,
   3735.000000,
   3740.000000,
   3745.000000,
   3750.000000,
   3755.000000,
   3760.000000,
   3765.000000,
   3770.000000,
   3775.000000,
   3780.000000,
   3785.000000,
   3790.000000,
   3795.000000,
   3800.000000,
   3805.000000,
   3810.000000,
   3815.000000,
   3820.000000,
   3825.000000,
   3830.000000,
   3835.000000,
   3840.000000,
   3845.000000,
   3850.000000,
   3855.000000,
   3860.000000,
   3865.000000,
   3870.000000,
   3875.000000,
   3880.000000,
   3885.000000,
   3890.000000,
   3895.000000,
   3900.000000,
   3905.000000,
   3910.000000,
   3915.000000,
   3920.000000,
   3925.000000,
   3930.000000,
   3935.000000,
   3940.000000,
   3945.000000,
   3950.000000,
   3955.000000,
   3960.000000,
   3965.000000,
   3970.000000,
   3975.000000,
   3980.000000,
   3985.000000,
   3990.000000,
   3995.000000,
   4000.000000,
   4005.000000,
   4010.000000,
   4015.000000,
   4020.000000,
   4025.000000,
   4030.000000,
   4035.000000,
   4040.000000,
   4045.000000,
   4050.000000,
   4055.000000,
   4060.000000,
   4065.000000,
   4070.000000,
   4075.000000,
   4080.000000,
   4085.000000,
   4090.000000,
   4095.000000,
   4100.000000,
   4105.000000,
   4110.000000,
   4115.000000,
   4120.000000,
   4125.000000,
   4130.000000,
   4135.000000,
   4140.000000,
   4145.000000,
   4150.000000,
   4155.000000,
   4160.000000,
   4165.000000,
   4170.000000,
   4175.000000,
   4180.000000,
   4185.000000,
   4190.000000,
   4195.000000,
   4200.000000,
   4205.000000,
   4210.000000,
   4215.000000,
   4220.000000,
   4225.000000,
   4230.000000,
   4235.000000,
   4240.000000,
   4245.000000,
   4250.000000,
   4255.000000,
   4260.000000,
   4265.000000,
   4270.000000,
   4275.000000,
   4280.000000,
   4285.000000,
   4290.000000,
   4295.000000,
   4300.000000,
   4305.000000,
   4310.000000,
   4315.000000,
   4320.000000,
   4325.000000,
   4330.000000,
   4335.000000,
   4340.000000,
   4345.000000,
   4350.000000,
   4355.000000,
   4360.000000,
   4365.000000,
   4370.000000,
   4375.000000,
   4380.000000,
   4385.000000,
   4390.000000,
   4395.000000,
   4400.000000,
   4405.000000,
   4410.000000,
   4415.000000,
   4420.000000,
   4425.000000,
   4430.000000,
   4435.000000,
   4440.000000,
   4445.000000,
   4450.000000,
   4455.000000,
   4460.000000,
   4465.000000,
   4470.000000,
   4475.000000,
   4480.000000,
   4485.000000,
   4490.000000,
   4495.000000,
   4500.000000,
   4505.000000,
   4510.000000,
   4515.000000,
   4520.000000,
   4525.000000,
   4530.000000,
   4535.000000,
   4540.000000,
   4545.000000,
   4550.000000,
   4555.000000,
   4560.000000,
   4565.000000,
   4570.000000,
   4575.000000,
   4580.000000,
   4585.000000,
   4590.000000,
   4595.000000,
   4600.000000,
   4605.000000,
   4610.000000,
   4615.000000,
   4620.000000,
   4625.000000,
   4630.000000,
   4635.000000,
   4640.000000,
   4645.000000,
   4650.000000,
   4655.000000,
   4660.000000,
   4665.000000,
   4670.000000,
   4675.000000,
   4680.000000,
   4685.000000,
   4690.000000,
   4695.000000,
   4700.000000,
   4705.000000,
   4710.000000,
   4715.000000,
   4720.000000,
   4725.000000,
   4730.000000,
   4735.000000,
   4740.000000,
   4745.000000,
   4750.000000,
   4755.000000,
   4760.000000,
   4765.000000,
   4770.000000,
   4775.000000,
   4780.000000,
   4785.000000,
   4790.000000,
   4795.000000,
   4800.000000,
   4805.000000,
   4810.000000,
   4815.000000,
   4820.000000,
   4825.000000,
   4830.000000,
   4835.000000,
   4840.000000,
   4845.000000,
   4850.000000,
   4855.000000,
   4860.000000,
   4865.000000,
   4870.000000,
   4875.000000,
   4880.000000,
   4885.000000,
   4890.000000,
   4895.000000,
   4900.000000,
   4905.000000,
   4910.000000,
   4915.000000,
   4920.000000,
   4925.000000,
   4930.000000,
   4935.000000,
   4940.000000,
   4945.000000,
   4950.000000,
   4955.000000,
   4960.000000,
   4965.000000,
   4970.000000,
   4975.000000,
   4980.000000,
   4985.000000,
   4990.000000,
   4995.000000,
   5000.000000,
   5005.000000,
   5010.000000,
   5015.000000,
   5020.000000,
   5025.000000,
   5030.000000,
   5035.000000,
   5040.000000,
   5045.000000,
   5050.000000,
   5055.000000,
   5060.000000,
   5065.000000,
   5070.000000,
   5075.000000,
   5080.000000,
   5085.000000,
   5090.000000,
   5095.000000,
   5100.000000,
   5105.000000,
   5110.000000,
   5115.000000,
   5120.000000,
   5125.000000,
   5130.000000,
   5135.000000,
   5140.000000,
   5145.000000,
   5150.000000,
   5155.000000,
   5160.000000,
   5165.000000,
   5170.000000,
   5175.000000,
   5180.000000,
   5185.000000,
   5190.000000,
   5195.000000,
   5200.000000,
   5205.000000,
   5210.000000,
   5215.000000,
   5220.000000,
   5225.000000,
   5230.000000,
   5235.000000,
   5240.000000,
   5245.000000,
   5250.000000,
   5255.000000,
   5260.000000,
   5265.000000,
   5270.000000,
   5275.000000,
   5280.000000,
   5285.000000,
   5290.000000,
   5295.000000,
   5300.000000,
   5305.000000,
   5310.000000,
   5315.000000,
   5320.000000,
   5325.000000,
   5330.000000,
   5335.000000,
   5340.000000,
   5345.000000,
   5350.000000,
   5355.000000,
   5360.000000,
   5365.000000,
   5370.000000,
   5375.000000,
   5380.000000,
   5385.000000,
   5390.000000,
   5395.000000,
   5400.000000,
   5405.000000,
   5410.000000,
   5415.000000,
   5420.000000,
   5425.000000,
   5430.000000,
   5435.000000,
   5440.000000,
   5445.000000,
   5450.000000,
   5455.000000,
   5460.000000,
   5465.000000,
   5470.000000,
   5475.000000,
   5480.000000,
   5485.000000,
   5490.000000,
   5495.000000,
   5500.000000,
   5505.000000,
   5510.000000,
   5515.000000,
   5520.000000,
   5525.000000,
   5530.000000,
   5535.000000,
   5540.000000,
   5545.000000,
   5550.000000,
   5555.000000,
   5560.000000,
   5565.000000,
   5570.000000,
   5575.000000,
   5580.000000,
   5585.000000,
   5590.000000,
   5595.000000,
   5600.000000,
   5605.000000,
   5610.000000,
   5615.000000,
   5620.000000,
   5625.000000,
   5630.000000,
   5635.000000,
   5640.000000,
   5645.000000,
   5650.000000,
   5655.000000,
   5660.000000,
   5665.000000,
   5670.000000,
   5675.000000,
   5680.000000,
   5685.000000,
   5690.000000,
   5695.000000,
   5700.000000,
   5705.000000,
   5710.000000,
   5715.000000,
   5720.000000,
   5725.000000,
   5730.000000,
   5735.000000,
   5740.000000,
   5745.000000,
   5750.000000,
   5755.000000,
   5760.000000,
   5765.000000,
   5770.000000,
   5775.000000,
   5780.000000,
   5785.000000,
   5790.000000,
   5795.000000,
   5800.000000,
   5805.000000,
   5810.000000,
   5815.000000,
   5820.000000,
   5825.000000,
   5830.000000,
   5835.000000,
   5840.000000,
   5845.000000,
   5850.000000,
   5855.000000,
   5860.000000,
   5865.000000,
   5870.000000,
   5875.000000,
   5880.000000,
   5885.000000,
   5890.000000,
   5895.000000,
   5900.000000,
   5905.000000,
   5910.000000,
   5915.000000,
   5920.000000,
   5925.000000,
   5930.000000,
   5935.000000,
   5940.000000,
   5945.000000,
   5950.000000,
   5955.000000,
   5960.000000,
   5965.000000,
   5970.000000,
   5975.000000,
   5980.000000,
   5985.000000,
   5990.000000,
   5995.000000,
   6000.000000,
   6005.000000,
   6010.000000,
   6015.000000,
   6020.000000,
   6025.000000,
   6030.000000,
   6035.000000,
   6040.000000,
   6045.000000,
   6050.000000,
   6055.000000,
   6060.000000,
   6065.000000,
   6070.000000,
   6075.000000,
   6080.000000,
   6085.000000,
   6090.000000,
   6095.000000,
   6100.000000,
   6105.000000,
   6110.000000,
   6115.000000,
   6120.000000,
   6125.000000,
   6130.000000,
   6135.000000,
   6140.000000,
   6145.000000,
   6150.000000,
   6155.000000,
   6160.000000,
   6165.000000,
   6170.000000,
   6175.000000,
   6180.000000,
   6185.000000,
   6190.000000,
   6195.000000,
   6200.000000,
   6205.000000,
   6210.000000,
   6215.000000,
   6220.000000,
   6225.000000,
   6230.000000,
   6235.000000,
   6240.000000,
   6245.000000,
   6250.000000,
   6255.000000,
   6260.000000,
   6265.000000,
   6270.000000,
   6275.000000,
   6280.000000,
   6285.000000,
   6290.000000,
   6295.000000,
   6300.000000,
   6305.000000,
   6310.000000,
   6315.000000,
   6320.000000,
   6325.000000,
   6330.000000,
   6335.000000,
   6340.000000,
   6345.000000,
   6350.000000,
   6355.000000,
   6360.000000,
   6365.000000,
   6370.000000,
   6375.000000,
   6380.000000,
   6385.000000,
   6390.000000,
   6395.000000,
   6400.000000,
   6405.000000,
   6410.000000,
   6415.000000,
   6420.000000,
   6425.000000,
   6430.000000,
   6435.000000,
   6440.000000,
   6445.000000,
   6450.000000,
   6455.000000,
   6460.000000,
   6465.000000,
   6470.000000,
   6475.000000,
   6480.000000,
   6485.000000,
   6490.000000,
   6495.000000,
   6500.000000,
   6505.000000,
   6510.000000,
   6515.000000,
   6520.000000,
   6525.000000,
   6530.000000,
   6535.000000,
   6540.000000,
   6545.000000,
   6550.000000,
   6555.000000,
   6560.000000,
   6565.000000,
   6570.000000,
   6575.000000,
   6580.000000,
   6585.000000,
   6590.000000,
   6595.000000,
   6600.000000,
   6605.000000,
   6610.000000,
   6615.000000,
   6620.000000,
   6625.000000,
   6630.000000,
   6635.000000,
   6640.000000,
   6645.000000,
   6650.000000,
   6655.000000,
   6660.000000,
   6665.000000,
   6670.000000,
   6675.000000,
   6680.000000,
   6685.000000,
   6690.000000,
   6695.000000,
   6700.000000,
   6705.000000,
   6710.000000,
   6715.000000,
   6720.000000,
   6725.000000,
   6730.000000,
   6735.000000,
   6740.000000,
   6745.000000,
   6750.000000,
   6755.000000,
   6760.000000,
   6765.000000,
   6770.000000,
   6775.000000,
   6780.000000,
   6785.000000,
   6790.000000,
   6795.000000,
   6800.000000,
   6805.000000,
   6810.000000,
   6815.000000,
   6820.000000,
   6825.000000,
   6830.000000,
   6835.000000,
   6840.000000,
   6845.000000,
   6850.000000,
   6855.000000,
   6860.000000,
   6865.000000,
   6870.000000,
   6875.000000,
   6880.000000,
   6885.000000,
   6890.000000,
   6895.000000,
   6900.000000,
   6905.000000,
   6910.000000,
   6915.000000,
   6920.000000,
   6925.000000,
   6930.000000,
   6935.000000,
   6940.000000,
   6945.000000,
   6950.000000,
   6955.000000,
   6960.000000,
   6965.000000,
   6970.000000,
   6975.000000,
   6980.000000,
   6985.000000,
   6990.000000,
   6995.000000,
   7000.000000,
   7005.000000,
   7010.000000,
   7015.000000,
   7020.000000,
   7025.000000,
   7030.000000,
   7035.000000,
   7040.000000,
   7045.000000,
   7050.000000,
   7055.000000,
   7060.000000,
   7065.000000,
   7070.000000,
   7075.000000,
   7080.000000,
   7085.000000,
   7090.000000,
   7095.000000,
   7100.000000,
   7105.000000,
   7110.000000,
   7115.000000,
   7120.000000,
   7125.000000,
   7130.000000,
   7135.000000,
   7140.000000,
   7145.000000,
   7150.000000,
   7155.000000,
   7160.000000,
   7165.000000,
   7170.000000,
   7175.000000,
   7180.000000,
   7185.000000,
   7190.000000,
   7195.000000,
   7200.000000,
   7205.000000,
   7210.000000,
   7215.000000,
   7220.000000,
   7225.000000,
   7230.000000,
   7235.000000,
   7240.000000,
   7245.000000,
   7250.000000,
   7255.000000,
   7260.000000,
   7265.000000,
   7270.000000,
   7275.000000,
   7280.000000,
   7285.000000,
   7290.000000,
   7295.000000,
   7300.000000,
   7305.000000,
   7310.000000,
   7315.000000,
   7320.000000,
   7325.000000,
   7330.000000,
   7335.000000,
   7340.000000,
   7345.000000,
   7350.000000,
   7355.000000,
   7360.000000,
   7365.000000,
   7370.000000,
   7375.000000,
   7380.000000,
   7385.000000,
   7390.000000,
   7395.000000,
   7400.000000,
   7405.000000,
   7410.000000,
   7415.000000,
   7420.000000,
   7425.000000,
   7430.000000,
   7435.000000,
   7440.000000,
   7445.000000,
   7450.000000,
   7455.000000,
   7460.000000,
   7465.000000,
   7470.000000,
   7475.000000,
   7480.000000,
   7485.000000,
   7490.000000,
   7495.000000,
   7500.000000,
   7505.000000,
   7510.000000,
   7515.000000,
   7520.000000,
   7525.000000,
   7530.000000,
   7535.000000,
   7540.000000,
   7545.000000,
   7550.000000,
   7555.000000,
   7560.000000,
   7565.000000,
   7570.000000,
   7575.000000,
   7580.000000,
   7585.000000,
   7590.000000,
   7595.000000,
   7600.000000,
   7605.000000,
   7610.000000,
   7615.000000,
   7620.000000,
   7625.000000,
   7630.000000,
   7635.000000,
   7640.000000,
   7645.000000,
   7650.000000,
   7655.000000,
   7660.000000,
   7665.000000,
   7670.000000,
   7675.000000,
   7680.000000,
   7685.000000,
   7690.000000,
   7695.000000,
   7700.000000,
   7705.000000,
   7710.000000,
   7715.000000,
   7720.000000,
   7725.000000,
   7730.000000,
   7735.000000,
   7740.000000,
   7745.000000,
   7750.000000,
   7755.000000,
   7760.000000,
   7765.000000,
   7770.000000,
   7775.000000,
   7780.000000,
   7785.000000,
   7790.000000,
   7795.000000,
   7800.000000,
   7805.000000,
   7810.000000,
   7815.000000,
   7820.000000,
   7825.000000,
   7830.000000,
   7835.000000,
   7840.000000,
   7845.000000,
   7850.000000,
   7855.000000,
   7860.000000,
   7865.000000,
   7870.000000,
   7875.000000,
   7880.000000,
   7885.000000,
   7890.000000,
   7895.000000,
   7900.000000,
   7905.000000,
   7910.000000,
   7915.000000,
   7920.000000,
   7925.000000,
   7930.000000,
   7935.000000,
   7940.000000,
   7945.000000,
   7950.000000,
   7955.000000,
   7960.000000,
   7965.000000,
   7970.000000,
   7975.000000,
   7980.000000,
   7985.000000,
   7990.000000,
   7995.000000,
   8000.000000,
   8005.000000,
   8010.000000,
   8015.000000,
   8020.000000,
   8025.000000,
   8030.000000,
   8035.000000,
   8040.000000,
   8045.000000,
   8050.000000,
   8055.000000,
   8060.000000,
   8065.000000,
   8070.000000,
   8075.000000,
   8080.000000,
   8085.000000,
   8090.000000,
   8095.000000,
   8100.000000,
   8105.000000,
   8110.000000,
   8115.000000,
   8120.000000,
   8125.000000,
   8130.000000,
   8135.000000,
   8140.000000,
   8145.000000,
   8150.000000,
   8155.000000,
   8160.000000,
   8165.000000,
   8170.000000,
   8175.000000,
   8180.000000,
   8185.000000,
   8190.000000,
   8195.000000,
   8200.000000,
   8205.000000,
   8210.000000,
   8215.000000,
   8220.000000,
   8225.000000,
   8230.000000,
   8235.000000,
   8240.000000,
   8245.000000,
   8250.000000,
   8255.000000,
   8260.000000,
   8265.000000,
   8270.000000,
   8275.000000,
   8280.000000,
   8285.000000,
   8290.000000,
   8295.000000,
   8300.000000,
   8305.000000,
   8310.000000,
   8315.000000,
   8320.000000,
   8325.000000,
   8330.000000,
   8335.000000,
   8340.000000,
   8345.000000,
   8350.000000,
   8355.000000,
   8360.000000,
   8365.000000,
   8370.000000,
   8375.000000,
   8380.000000,
   8385.000000,
   8390.000000,
   8395.000000,
   8400.000000,
   8405.000000,
   8410.000000,
   8415.000000,
   8420.000000,
   8425.000000,
   8430.000000,
   8435.000000,
   8440.000000,
   8445.000000,
   8450.000000,
   8455.000000,
   8460.000000,
   8465.000000,
   8470.000000,
   8475.000000,
   8480.000000,
   8485.000000,
   8490.000000,
   8495.000000,
   8500.000000,
   8505.000000,
   8510.000000,
   8515.000000,
   8520.000000,
   8525.000000,
   8530.000000,
   8535.000000,
   8540.000000,
   8545.000000,
   8550.000000,
   8555.000000,
   8560.000000,
   8565.000000,
   8570.000000,
   8575.000000,
   8580.000000,
   8585.000000,
   8590.000000,
   8595.000000,
   8600.000000,
   8605.000000,
   8610.000000,
   8615.000000,
   8620.000000,
   8625.000000,
   8630.000000,
   8635.000000,
   8640.000000,
   8645.000000,
   8650.000000,
   8655.000000,
   8660.000000,
   8665.000000,
   8670.000000,
   8675.000000,
   8680.000000,
   8685.000000,
   8690.000000,
   8695.000000,
   8700.000000,
   8705.000000,
   8710.000000,
   8715.000000,
   8720.000000,
   8725.000000,
   8730.000000,
   8735.000000,
   8740.000000,
   8745.000000,
   8750.000000,
   8755.000000,
   8760.000000,
   8765.000000,
   8770.000000,
   8775.000000,
   8780.000000,
   8785.000000,
   8790.000000,
   8795.000000,
   8800.000000,
   8805.000000,
   8810.000000,
   8815.000000,
   8820.000000,
   8825.000000,
   8830.000000,
   8835.000000,
   8840.000000,
   8845.000000,
   8850.000000,
   8855.000000,
   8860.000000,
   8865.000000,
   8870.000000,
   8875.000000,
   8880.000000,
   8885.000000,
   8890.000000,
   8895.000000,
   8900.000000,
   8905.000000,
   8910.000000,
   8915.000000,
   8920.000000,
   8925.000000,
   8930.000000,
   8935.000000,
   8940.000000,
   8945.000000,
   8950.000000,
   8955.000000,
   8960.000000,
   8965.000000,
   8970.000000,
   8975.000000,
   8980.000000,
   8985.000000,
   8990.000000,
   8995.000000,
   9000.000000,
   9005.000000,
   9010.000000,
   9015.000000,
   9020.000000,
   9025.000000,
   9030.000000,
   9035.000000,
   9040.000000,
   9045.000000,
   9050.000000,
   9055.000000,
   9060.000000,
   9065.000000,
   9070.000000,
   9075.000000,
   9080.000000,
   9085.000000,
   9090.000000,
   9095.000000,
   9100.000000,
   9105.000000,
   9110.000000,
   9115.000000,
   9120.000000,
   9125.000000,
   9130.000000,
   9135.000000,
   9140.000000,
   9145.000000,
   9150.000000,
   9155.000000,
   9160.000000,
   9165.000000,
   9170.000000,
   9175.000000,
   9180.000000,
   9185.000000,
   9190.000000,
   9195.000000,
   9200.000000,
   9205.000000,
   9210.000000,
   9215.000000,
   9220.000000,
   9225.000000,
   9230.000000,
   9235.000000,
   9240.000000,
   9245.000000,
   9250.000000,
   9255.000000,
   9260.000000,
   9265.000000,
   9270.000000,
   9275.000000,
   9280.000000,
   9285.000000,
   9290.000000,
   9295.000000,
   9300.000000,
   9305.000000,
   9310.000000,
   9315.000000,
   9320.000000,
   9325.000000,
   9330.000000,
   9335.000000,
   9340.000000,
   9345.000000,
   9350.000000,
   9355.000000,
   9360.000000,
   9365.000000,
   9370.000000,
   9375.000000,
   9380.000000,
   9385.000000,
   9390.000000,
   9395.000000,
   9400.000000,
   9405.000000,
   9410.000000,
   9415.000000,
   9420.000000,
   9425.000000,
   9430.000000,
   9435.000000,
   9440.000000,
   9445.000000,
   9450.000000,
   9455.000000,
   9460.000000,
   9465.000000,
   9470.000000,
   9475.000000,
   9480.000000,
   9485.000000,
   9490.000000,
   9495.000000,
   9500.000000,
   9505.000000,
   9510.000000,
   9515.000000,
   9520.000000,
   9525.000000,
   9530.000000,
   9535.000000,
   9540.000000,
   9545.000000,
   9550.000000,
   9555.000000,
   9560.000000,
   9565.000000,
   9570.000000,
   9575.000000,
   9580.000000,
   9585.000000,
   9590.000000,
   9595.000000,
   9600.000000,
   9605.000000,
   9610.000000,
   9615.000000,
   9620.000000,
   9625.000000,
   9630.000000,
   9635.000000,
   9640.000000,
   9645.000000,
   9650.000000,
   9655.000000,
   9660.000000,
   9665.000000,
   9670.000000,
   9675.000000,
   9680.000000,
   9685.000000,
   9690.000000,
   9695.000000,
   9700.000000,
   9705.000000,
   9710.000000,
   9715.000000,
   9720.000000,
   9725.000000,
   9730.000000,
   9735.000000,
   9740.000000,
   9745.000000,
   9750.000000,
   9755.000000,
   9760.000000,
   9765.000000,
   9770.000000,
   9775.000000,
   9780.000000,
   9785.000000,
   9790.000000,
   9795.000000,
   9800.000000,
   9805.000000,
   9810.000000,
   9815.000000,
   9820.000000,
   9825.000000,
   9830.000000,
   9835.000000,
   9840.000000,
   9845.000000,
   9850.000000,
   9855.000000,
   9860.000000,
   9865.000000,
   9870.000000,
   9875.000000,
   9880.000000,
   9885.000000,
   9890.000000,
   9895.000000,
   9900.000000,
   9905.000000,
   9910.000000,
   9915.000000,
   9920.000000,
   9925.000000,
   9930.000000,
   9935.000000,
   9940.000000,
   9945.000000,
   9950.000000,
   9955.000000,
   9960.000000,
   9965.000000,
   9970.000000,
   9975.000000,
   9980.000000,
   9985.000000,
   9990.000000,
   9995.000000,
   10000.000000,
   10005.000000,
   10010.000000,
   10015.000000,
   10020.000000,
   10025.000000,
   10030.000000,
   10035.000000,
   10040.000000,
   10045.000000,
   10050.000000,
   10055.000000,
   10060.000000,
   10065.000000,
   10070.000000,
   10075.000000,
   10080.000000,
   10085.000000,
   10090.000000,
   10095.000000,
   10100.000000,
   10105.000000,
   10110.000000,
   10115.000000,
   10120.000000,
   10125.000000,
   10130.000000,
   10135.000000,
   10140.000000,
   10145.000000,
   10150.000000,
   10155.000000,
   10160.000000,
   10165.000000,
   10170.000000,
   10175.000000,
   10180.000000,
   10185.000000,
   10190.000000,
   10195.000000,
   10200.000000,
   10205.000000,
   10210.000000,
   10215.000000,
   10220.000000,
   10225.000000,
   10230.000000,
   10235.000000,
   10240.000000,
   10245.000000,
   10250.000000,
   10255.000000,
   10260.000000,
   10265.000000,
   10270.000000,
   10275.000000,
   10280.000000,
   10285.000000,
   10290.000000,
   10295.000000,
   10300.000000,
   10305.000000,
   10310.000000,
   10315.000000,
   10320.000000,
   10325.000000,
   10330.000000,
   10335.000000,
   10340.000000,
   10345.000000,
   10350.000000,
   10355.000000,
   10360.000000,
   10365.000000,
   10370.000000,
   10375.000000,
   10380.000000,
   10385.000000,
   10390.000000,
   10395.000000,
   10400.000000,
   10405.000000,
   10410.000000,
   10415.000000,
   10420.000000,
   10425.000000,
   10430.000000,
   10435.000000,
   10440.000000,
   10445.000000,
   10450.000000,
   10455.000000,
   10460.000000,
   10465.000000,
   10470.000000,
   10475.000000,
   10480.000000,
   10485.000000,
   10490.000000,
   10495.000000,
   10500.000000,
   10505.000000,
   10510.000000,
   10515.000000,
   10520.000000,
   10525.000000,
   10530.000000,
   10535.000000,
   10540.000000,
   10545.000000,
   10550.000000,
   10555.000000,
   10560.000000,
   10565.000000,
   10570.000000,
   10575.000000,
   10580.000000,
   10585.000000,
   10590.000000,
   10595.000000,
   10600.000000,
   10605.000000,
   10610.000000,
   10615.000000,
   10620.000000
};

static double _o5v_flux[] = {
   12.354247,
   9.928268,
   8.410753,
   7.509275,
   6.670680,
   6.781011,
   7.357984,
   6.852360,
   4.872262,
   3.911742,
   3.635705,
   3.118013,
   3.574178,
   4.025427,
   2.568774,
   1.621761,
   1.946986,
   3.440087,
   7.304927,
   10.425267,
   9.332570,
   8.277149,
   8.269590,
   8.999817,
   9.816989,
   10.038819,
   10.157413,
   10.720798,
   11.270990,
   11.288293,
   10.213554,
   9.725484,
   10.801042,
   11.241415,
   11.143845,
   11.355783,
   10.812620,
   9.796715,
   10.036439,
   11.388572,
   11.942840,
   11.697521,
   10.939327,
   10.472205,
   10.386893,
   10.265371,
   10.594095,
   9.101425,
   9.106222,
   10.218836,
   12.030488,
   12.692549,
   12.465882,
   12.188085,
   11.972627,
   12.549244,
   12.381000,
   13.183895,
   12.588732,
   12.072426,
   11.745475,
   11.344063,
   11.558090,
   12.287302,
   13.342228,
   13.789039,
   14.373831,
   14.915152,
   15.405516,
   14.876936,
   13.815476,
   14.264360,
   14.894167,
   14.642174,
   14.612108,
   13.738270,
   10.425825,
   5.192809,
   4.034249,
   8.733002,
   16.761051,
   20.603991,
   17.648708,
   14.894928,
   14.415968,
   14.725375,
   14.549064,
   14.076339,
   13.778352,
   13.536096,
   13.048507,
   12.583019,
   12.014565,
   12.153325,
   12.099739,
   12.197218,
   12.312810,
   12.549278,
   12.834955,
   13.522785,
   13.270918,
   12.011052,
   11.829187,
   12.650260,
   12.388281,
   12.455683,
   13.185306,
   13.291745,
   13.062643,
   12.934876,
   12.634619,
   12.162938,
   10.960016,
   10.233763,
   11.535001,
   12.728098,
   12.800633,
   12.909595,
   12.770240,
   12.601005,
   12.427034,
   12.513680,
   12.520302,
   12.271631,
   12.151934,
   12.350992,
   12.207653,
   11.225578,
   9.867487,
   10.754947,
   11.228872,
   10.871095,
   10.663568,
   10.987250,
   11.055533,
   10.850305,
   10.662852,
   10.525848,
   10.271605,
   10.132284,
   9.780405,
   9.363360,
   9.375544,
   9.483219,
   9.344897,
   9.076859,
   9.020525,
   8.783040,
   8.647580,
   8.541557,
   8.310987,
   8.013688,
   7.913830,
   7.650915,
   7.274323,
   7.102759,
   7.157187,
   7.082033,
   6.943686,
   6.773274,
   6.621999,
   6.383287,
   6.088006,
   5.908768,
   5.727754,
   5.799105,
   5.645377,
   5.521245,
   5.106112,
   4.826860,
   5.111944,
   4.885216,
   4.573777,
   4.584790,
   4.503578,
   4.240175,
   4.129937,
   4.207735,
   4.035404,
   3.889281,
   3.855501,
   3.911336,
   3.437137,
   3.304794,
   3.763025,
   3.530975,
   3.654477,
   3.468575,
   3.215738,
   2.952195,
   2.596302,
   2.644565,
   2.885005,
   2.844980,
   2.621891,
   2.728950,
   2.785945,
   2.407447,
   2.330971,
   2.281234,
   2.207196,
   2.292736,
   2.328056,
   2.232810,
   2.143929,
   1.943004,
   1.752884,
   1.754634,
   1.819848,
   1.998276,
   2.062936,
   2.103238,
   1.984544,
   2.018105,
   2.051461,
   2.148038,
   2.267962,
   2.180169,
   2.178752,
   2.228225,
   2.501392,
   2.737138,
   2.591789,
   2.460554,
   2.715842,
   2.609978,
   2.570449,
   2.633254,
   2.757573,
   2.891746,
   2.875659,
   3.043302,
   3.359229,
   3.425841,
   3.165980,
   3.341468,
   3.675023,
   3.857401,
   3.769199,
   3.779188,
   3.907269,
   3.917960,
   3.969418,
   3.918830,
   4.108988,
   4.199293,
   4.316381,
   4.350537,
   4.208629,
   4.364014,
   4.731734,
   4.630998,
   4.582914,
   4.617506,
   4.691247,
   4.889919,
   5.154402,
   5.108383,
   5.118075,
   5.349842,
   5.312993,
   5.657761,
   5.981045,
   6.014513,
   5.659464,
   5.557835,
   5.564890,
   5.657494,
   5.721494,
   5.530495,
   5.810987,
   5.816087,
   5.755470,
   5.725237,
   5.730535,
   5.885444,
   6.190369,
   6.351297,
   6.236351,
   6.178383,
   6.375881,
   6.290639,
   6.221519,
   6.471826,
   6.569402,
   6.467954,
   5.467284,
   4.983804,
   5.579272,
   6.049005,
   6.081197,
   6.241147,
   6.327127,
   6.680542,
   6.848479,
   6.886405,
   6.879529,
   6.857961,
   6.556355,
   6.612978,
   6.819241,
   6.868794,
   6.779873,
   6.673353,
   6.740400,
   6.773973,
   6.790723,
   6.845486,
   7.015737,
   6.780900,
   6.700571,
   6.811278,
   6.840482,
   6.746272,
   6.753408,
   6.769570,
   6.967436,
   7.008129,
   6.983191,
   6.897233,
   7.035151,
   6.950256,
   7.161397,
   7.359293,
   7.204125,
   7.005527,
   7.017360,
   6.922927,
   6.840604,
   6.521082,
   6.245466,
   6.520746,
   7.093396,
   7.254028,
   7.235205,
   7.030965,
   6.983291,
   7.143864,
   7.283491,
   7.132699,
   7.049846,
   6.917205,
   7.058835,
   7.241823,
   7.220841,
   7.226741,
   7.167696,
   7.236569,
   7.366451,
   7.398692,
   7.330579,
   7.186863,
   7.270552,
   7.346966,
   7.412508,
   7.393971,
   7.342690,
   7.227251,
   7.237062,
   7.355906,
   7.310308,
   7.440499,
   7.511858,
   7.360662,
   7.375257,
   7.403920,
   7.498200,
   7.362726,
   7.356517,
   7.233176,
   7.216478,
   7.201781,
   7.376844,
   7.414644,
   7.274108,
   7.047410,
   7.111680,
   7.205910,
   7.335783,
   7.237627,
   7.180950,
   7.271171,
   7.012531,
   6.912734,
   7.079757,
   7.049777,
   7.367270,
   7.669431,
   7.642879,
   7.518178,
   7.707456,
   7.807666,
   7.708428,
   7.709791,
   7.734833,
   7.950598,
   7.960353,
   7.871122,
   7.914507,
   8.231490,
   8.361894,
   8.316783,
   8.103815,
   8.254359,
   8.392982,
   8.489452,
   8.378233,
   8.139612,
   8.220535,
   7.948538,
   7.355319,
   7.697585,
   7.992072,
   7.793368,
   7.500418,
   7.558261,
   7.751969,
   7.780250,
   7.656339,
   7.484559,
   7.419063,
   7.546488,
   7.633584,
   7.468321,
   7.243440,
   7.172769,
   7.149729,
   7.038074,
   6.903294,
   6.826443,
   6.749083,
   6.615716,
   6.522100,
   6.559974,
   6.653771,
   6.698923,
   6.642181,
   6.482273,
   6.374506,
   6.440778,
   6.512753,
   6.422764,
   6.296062,
   6.273357,
   6.264282,
   6.166691,
   6.062383,
   6.042455,
   6.051256,
   6.017390,
   5.953247,
   5.891100,
   5.858983,
   5.872938,
   5.905296,
   5.922138,
   5.908273,
   5.863833,
   5.831523,
   5.845898,
   5.866347,
   5.846630,
   5.793149,
   5.720603,
   5.624221,
   5.507444,
   5.426026,
   5.429195,
   5.487771,
   5.550201,
   5.553849,
   5.465034,
   5.506341,
   5.528964,
   5.525383,
   5.492723,
   5.432461,
   5.408492,
   5.383089,
   5.350412,
   5.315348,
   5.268064,
   5.215472,
   5.181294,
   5.151640,
   5.064332,
   5.000496,
   4.956786,
   4.938492,
   4.931778,
   4.914600,
   4.898636,
   4.937316,
   4.910562,
   4.873390,
   4.879949,
   4.896858,
   4.908331,
   4.906817,
   4.897730,
   4.896791,
   4.954408,
   4.963260,
   4.921260,
   4.859016,
   4.789067,
   4.730928,
   4.730941,
   4.705989,
   4.676873,
   4.639644,
   4.590496,
   4.602149,
   4.638532,
   4.603949,
   4.533883,
   4.507094,
   4.544147,
   4.599780,
   4.536463,
   4.390773,
   4.322390,
   4.326548,
   4.309671,
   4.257657,
   4.445686,
   4.638746,
   4.617775,
   4.486809,
   4.310945,
   4.340013,
   4.535757,
   4.635430,
   4.648519,
   4.598944,
   4.505975,
   4.280913,
   4.118976,
   4.288995,
   4.447870,
   4.471776,
   4.429366,
   4.410645,
   4.371662,
   4.344462,
   4.299703,
   4.121013,
   3.834561,
   3.808447,
   4.071723,
   4.249123,
   4.270894,
   4.220328,
   4.143891,
   4.077285,
   4.038380,
   3.976930,
   3.979873,
   4.065801,
   4.082828,
   4.060128,
   3.982962,
   3.787206,
   3.475824,
   3.350482,
   3.614794,
   3.806394,
   3.834706,
   3.793397,
   3.764283,
   3.740660,
   3.715607,
   3.685520,
   3.641503,
   3.555322,
   3.470134,
   3.488447,
   3.526244,
   3.567580,
   3.588054,
   3.595747,
   3.563520,
   3.546625,
   3.523078,
   3.473087,
   3.459444,
   3.439579,
   3.382276,
   3.294374,
   3.091724,
   2.896920,
   3.031221,
   3.244087,
   3.309517,
   3.318604,
   3.311059,
   3.304340,
   3.282842,
   3.258918,
   3.244801,
   3.231102,
   3.229472,
   3.213803,
   3.192666,
   3.175755,
   3.165456,
   3.154830,
   3.125080,
   3.061807,
   2.976036,
   2.925914,
   2.978519,
   3.013246,
   3.008003,
   3.002639,
   2.995408,
   2.984229,
   2.954819,
   2.932537,
   2.930752,
   2.928275,
   2.903358,
   2.871778,
   2.847426,
   2.840531,
   2.832905,
   2.820014,
   2.807442,
   2.791812,
   2.789046,
   2.784508,
   2.775176,
   2.778084,
   2.768073,
   2.745305,
   2.714263,
   2.609965,
   2.417091,
   2.304199,
   2.442607,
   2.589814,
   2.653373,
   2.662863,
   2.652761,
   2.638364,
   2.623167,
   2.597995,
   2.577212,
   2.584989,
   2.582220,
   2.561121,
   2.538024,
   2.510464,
   2.463937,
   2.417243,
   2.375760,
   2.340586,
   2.350785,
   2.384998,
   2.410148,
   2.432351,
   2.438818,
   2.413490,
   2.376311,
   2.324116,
   2.333668,
   2.348763,
   2.346370,
   2.340014,
   2.334521,
   2.328965,
   2.309363,
   2.297810,
   2.285011,
   2.280267,
   2.261416,
   2.233078,
   2.172098,
   2.108621,
   2.151205,
   2.194848,
   2.207146,
   2.209116,
   2.196997,
   2.181215,
   2.169757,
   2.171879,
   2.158612,
   2.134382,
   2.123401,
   2.116204,
   2.108387,
   2.113212,
   2.113685,
   2.102574,
   2.084434,
   2.083315,
   2.082672,
   2.088073,
   2.073948,
   2.051712,
   2.037895,
   2.044002,
   2.040011,
   2.018997,
   1.993647,
   1.916061,
   1.859749,
   1.915028,
   1.963758,
   1.958291,
   1.949402,
   1.917382,
   1.899787,
   1.889676,
   1.871239,
   1.874872,
   1.869085,
   1.864865,
   1.862967,
   1.848031,
   1.824786,
   1.803741,
   1.800319,
   1.808924,
   1.798452,
   1.784757,
   1.784232,
   1.780136,
   1.766839,
   1.754507,
   1.750172,
   1.745331,
   1.737823,
   1.733929,
   1.728627,
   1.727700,
   1.723498,
   1.719507,
   1.694735,
   1.634978,
   1.501500,
   1.382087,
   1.457954,
   1.571613,
   1.605421,
   1.610805,
   1.616123,
   1.619858,
   1.618274,
   1.615890,
   1.621166,
   1.619439,
   1.611475,
   1.587395,
   1.594559,
   1.608176,
   1.600916,
   1.587463,
   1.582775,
   1.580435,
   1.575225,
   1.573141,
   1.561011,
   1.544183,
   1.535783,
   1.522823,
   1.530253,
   1.529029,
   1.524927,
   1.521316,
   1.507041,
   1.488407,
   1.470268,
   1.470656,
   1.468634,
   1.460164,
   1.458620,
   1.455726,
   1.449439,
   1.443154,
   1.440408,
   1.435246,
   1.432580,
   1.432368,
   1.431692,
   1.428548,
   1.422792,
   1.417030,
   1.406642,
   1.405829,
   1.394181,
   1.383517,
   1.379383,
   1.373877,
   1.371288,
   1.370308,
   1.365723,
   1.361532,
   1.356145,
   1.349294,
   1.344162,
   1.340673,
   1.333722,
   1.328486,
   1.328736,
   1.323181,
   1.315930,
   1.307836,
   1.308233,
   1.298663,
   1.287448,
   1.290102,
   1.288460,
   1.280389,
   1.273036,
   1.265580,
   1.260703,
   1.255359,
   1.255282,
   1.245590,
   1.249312,
   1.248238,
   1.235956,
   1.227798,
   1.227248,
   1.221089,
   1.219573,
   1.212409,
   1.203874,
   1.197500,
   1.197945,
   1.194252,
   1.194883,
   1.192047,
   1.184911,
   1.175465,
   1.171941,
   1.165313,
   1.164120,
   1.164800,
   1.163259,
   1.151912,
   1.146598,
   1.143518,
   1.140256,
   1.138326,
   1.132392,
   1.134609,
   1.128119,
   1.108495,
   1.066491,
   1.021042,
   1.044040,
   1.086016,
   1.095270,
   1.095123,
   1.089796,
   1.086566,
   1.077528,
   1.072877,
   1.067716,
   1.068057,
   1.063363,
   1.066066,
   1.063575,
   1.052402,
   1.040744,
   1.037943,
   1.048260,
   1.047725,
   1.036965,
   1.031918,
   1.032413,
   1.027665,
   1.019546,
   1.015922,
   1.008126,
   1.006934,
   1.006305,
   1.005341,
   1.002277,
   1.001319,
   0.998932,
   0.993667,
   0.993699,
   0.988919,
   0.977233,
   0.966262,
   0.964858,
   0.970053,
   0.967947,
   0.963008,
   0.957674,
   0.956647,
   0.953920,
   0.950771,
   0.948347,
   0.945012,
   0.941731,
   0.939804,
   0.935990,
   0.931658,
   0.927520,
   0.921833,
   0.916046,
   0.915521,
   0.917493,
   0.917845,
   0.921021,
   0.910517,
   0.892511,
   0.897787,
   0.898082,
   0.889743,
   0.884772,
   0.882481,
   0.877837,
   0.873134,
   0.870006,
   0.868411,
   0.865849,
   0.865101,
   0.858722,
   0.849837,
   0.835218,
   0.814963,
   0.826499,
   0.835066,
   0.816090,
   0.803287,
   0.809841,
   0.809366,
   0.816633,
   0.829489,
   0.832000,
   0.829654,
   0.825649,
   0.823412,
   0.817082,
   0.812878,
   0.809519,
   0.810100,
   0.808375,
   0.783770,
   0.756876,
   0.776266,
   0.753364,
   0.695083,
   0.705948,
   0.755212,
   0.785667,
   0.783037,
   0.781893,
   0.773510,
   0.770671,
   0.771364,
   0.768383,
   0.763973,
   0.757592,
   0.753331,
   0.754244,
   0.750452,
   0.750108,
   0.743496,
   0.744142,
   0.742761,
   0.738033,
   0.739908,
   0.741654,
   0.735786,
   0.730656,
   0.726057,
   0.725243,
   0.725720,
   0.726374,
   0.726515,
   0.715903,
   0.711509,
   0.715883,
   0.711402,
   0.711858,
   0.708347,
   0.703055,
   0.700589,
   0.698870,
   0.698184,
   0.697365,
   0.697777,
   0.695689,
   0.692154,
   0.688173,
   0.686146,
   0.686333,
   0.677671,
   0.681732,
   0.680589,
   0.677642,
   0.677710,
   0.673670,
   0.673081,
   0.669480,
   0.665481,
   0.655783,
   0.649435,
   0.650337,
   0.651746,
   0.653777,
   0.653094,
   0.652608,
   0.647681,
   0.643435,
   0.647592,
   0.646917,
   0.646520,
   0.641329,
   0.635599,
   0.634695,
   0.635969,
   0.639498,
   0.640067,
   0.636969,
   0.636878,
   0.627287,
   0.621502,
   0.606036,
   0.580205,
   0.587204,
   0.606890,
   0.611236,
   0.609379,
   0.601864,
   0.593986,
   0.594474,
   0.601604,
   0.607403,
   0.605091,
   0.605344,
   0.603081,
   0.600088,
   0.597714,
   0.594037,
   0.592365,
   0.589960,
   0.588574,
   0.584644,
   0.581084,
   0.582496,
   0.582448,
   0.579250,
   0.571250,
   0.568194,
   0.567774,
   0.570366,
   0.573342,
   0.574612,
   0.573255,
   0.570730,
   0.567817,
   0.564982,
   0.562314,
   0.559573,
   0.558710,
   0.558142,
   0.556381,
   0.555453,
   0.556333,
   0.552112,
   0.549874,
   0.550986,
   0.552667,
   0.552303,
   0.550978,
   0.544322,
   0.537988,
   0.529896,
   0.528945,
   0.535450,
   0.538616,
   0.534851,
   0.522171,
   0.489121,
   0.446247,
   0.449426,
   0.498242,
   0.524353,
   0.531931,
   0.529738,
   0.529597,
   0.528352,
   0.527850,
   0.527306,
   0.522098,
   0.519816,
   0.517831,
   0.520186,
   0.515914,
   0.515612,
   0.514102,
   0.511314,
   0.508787,
   0.504585,
   0.501759,
   0.498610,
   0.495889,
   0.486066,
   0.476114,
   0.478700,
   0.487284,
   0.492773,
   0.491704,
   0.490808,
   0.491346,
   0.489686,
   0.488660,
   0.489522,
   0.487166,
   0.485128,
   0.481536,
   0.480794,
   0.479177,
   0.477054,
   0.477540,
   0.475540,
   0.473415,
   0.471062,
   0.469223,
   0.467267,
   0.464838,
   0.465979,
   0.467827,
   0.465559,
   0.461679,
   0.461650,
   0.461801,
   0.460385,
   0.460259,
   0.458034,
   0.452001,
   0.450917,
   0.449833,
   0.448749,
   0.447665,
   0.446581,
   0.445497,
   0.444413,
   0.443329,
   0.442245,
   0.441161,
   0.440077,
   0.438993,
   0.437909,
   0.436825,
   0.435741,
   0.434657,
   0.433573,
   0.432489,
   0.431405,
   0.430321,
   0.429237,
   0.428153,
   0.427069,
   0.425986,
   0.424902,
   0.423818,
   0.430262,
   0.427752,
   0.424017,
   0.417992,
   0.417981,
   0.417153,
   0.416619,
   0.416979,
   0.413611,
   0.414764,
   0.413817,
   0.413743,
   0.413965,
   0.411701,
   0.407351,
   0.405887,
   0.407669,
   0.400735,
   0.394219,
   0.398218,
   0.403403,
   0.402212,
   0.402509,
   0.403025,
   0.402777,
   0.398624,
   0.398757,
   0.397959,
   0.396981,
   0.399811,
   0.399281,
   0.399893,
   0.400882,
   0.399617,
   0.397686,
   0.396064,
   0.394626,
   0.390738,
   0.386157,
   0.372420,
   0.363136,
   0.361233,
   0.359411,
   0.365866,
   0.370019,
   0.369296,
   0.372001,
   0.381519,
   0.383277,
   0.382119,
   0.380817,
   0.376708,
   0.369263,
   0.365790,
   0.364249,
   0.365700,
   0.363726,
   0.364879,
   0.360753,
   0.359734,
   0.354739,
   0.358906,
   0.359909,
   0.353713,
   0.357960,
   0.357475,
   0.352430,
   0.353631,
   0.351289,
   0.350849,
   0.351648,
   0.349579,
   0.350570,
   0.349845,
   0.348531,
   0.346355,
   0.347050,
   0.344469,
   0.341514,
   0.342076,
   0.342577,
   0.341096,
   0.336444,
   0.336349,
   0.337995,
   0.334411,
   0.331268,
   0.328531,
   0.330955,
   0.332923,
   0.323753,
   0.323534,
   0.322430,
   0.323027,
   0.322448,
   0.321699,
   0.322997,
   0.319360,
   0.320017,
   0.316073,
   0.317172,
   0.316454,
   0.314990,
   0.313728,
   0.313354,
   0.313290,
   0.311540,
   0.311390,
   0.311546,
   0.309484,
   0.309898,
   0.307433,
   0.306397,
   0.305547,
   0.305379,
   0.305224,
   0.304342,
   0.303459,
   0.302577,
   0.301695,
   0.300813,
   0.299931,
   0.299048,
   0.298166,
   0.297284,
   0.296402,
   0.295520,
   0.294638,
   0.293755,
   0.292873,
   0.291991,
   0.291109,
   0.290227,
   0.289344,
   0.288462,
   0.287580,
   0.286698,
   0.285816,
   0.284934,
   0.284051,
   0.283169,
   0.282287,
   0.281405,
   0.280523,
   0.279641,
   0.278758,
   0.277876,
   0.276994,
   0.276112,
   0.275230,
   0.274347,
   0.273465,
   0.272181,
   0.272959,
   0.271578,
   0.271809,
   0.270888,
   0.270185,
   0.268911,
   0.269078,
   0.268858,
   0.266375,
   0.267075,
   0.266096,
   0.265302,
   0.265220,
   0.264219,
   0.264443,
   0.263114,
   0.263755,
   0.262594,
   0.260397,
   0.260995,
   0.259578,
   0.259895,
   0.259273,
   0.259581,
   0.255743,
   0.255601,
   0.256031,
   0.255135,
   0.255578,
   0.253327,
   0.253870,
   0.251718,
   0.251173,
   0.251794,
   0.250875,
   0.251042,
   0.249965,
   0.247702,
   0.246801,
   0.247876,
   0.248405,
   0.246258,
   0.245561,
   0.244195,
   0.243798,
   0.243944,
   0.242287,
   0.242953,
   0.241731,
   0.241785,
   0.241750,
   0.240342,
   0.241027,
   0.241871,
   0.241900,
   0.240962,
   0.240642,
   0.240320,
   0.240593,
   0.240312,
   0.239552,
   0.239511,
   0.239947,
   0.240919,
   0.239463,
   0.237723,
   0.237402,
   0.236708,
   0.234768,
   0.233695,
   0.232279,
   0.231395,
   0.230269,
   0.230517,
   0.229565,
   0.231601,
   0.231277,
   0.230447,
   0.229942,
   0.228734,
   0.228566,
   0.226896,
   0.224411,
   0.222395,
   0.220686,
   0.219779,
   0.220098,
   0.221577,
   0.219163,
   0.222950,
   0.222762,
   0.218269,
   0.221286,
   0.220235,
   0.219565,
   0.217241,
   0.213787,
   0.209685,
   0.205844,
   0.207665,
   0.206825,
   0.210995,
   0.215449,
   0.215159,
   0.215591,
   0.215324,
   0.215239,
   0.212327,
   0.210988,
   0.210217,
   0.210845,
   0.211434,
   0.213217,
   0.210894,
   0.210584,
   0.209950,
   0.207969,
   0.207987,
   0.208178,
   0.207687,
   0.207829,
   0.205305,
   0.203659,
   0.202000,
   0.199765,
   0.200374,
   0.201048,
   0.201847,
   0.201460,
   0.202817,
   0.202737,
   0.202338,
   0.203185,
   0.202719,
   0.201952,
   0.201639,
   0.200843,
   0.200921,
   0.199773,
   0.199466,
   0.197601,
   0.198129,
   0.197388,
   0.197881,
   0.197064,
   0.196437,
   0.195395,
   0.196480,
   0.192602,
   0.192566,
   0.193141,
   0.193749,
   0.192096,
   0.193033,
   0.193527,
   0.192745,
   0.192177,
   0.190905,
   0.189662,
   0.188396,
   0.189944,
   0.186328,
   0.186661,
   0.186961,
   0.188735,
   0.188059,
   0.186405,
   0.185071,
   0.183937,
   0.182835,
   0.181178,
   0.179652,
   0.180297,
   0.179407,
   0.180900,
   0.181318,
   0.180580,
   0.180669,
   0.181887,
   0.181324,
   0.179290,
   0.179985,
   0.180397,
   0.180075,
   0.178981,
   0.178442,
   0.179302,
   0.179921,
   0.180724,
   0.180926,
   0.180888,
   0.181117,
   0.181236,
   0.179983,
   0.179369,
   0.179049,
   0.178692,
   0.178569,
   0.177131,
   0.176025,
   0.177849,
   0.172060,
   0.172573,
   0.173268,
   0.174235,
   0.176183,
   0.173303,
   0.175029,
   0.174098,
   0.175342,
   0.175539,
   0.175036,
   0.175539,
   0.174575,
   0.175044,
   0.171914,
   0.173638,
   0.174389,
   0.173454,
   0.172716,
   0.170355,
   0.169421,
   0.167373,
   0.164249,
   0.161692,
   0.160584,
   0.161624,
   0.163316,
   0.164262,
   0.164287,
   0.165059,
   0.166174,
   0.164810,
   0.165830,
   0.164695,
   0.164141,
   0.164516,
   0.163699,
   0.170744,
   0.170748,
   0.172784,
   0.169521,
   0.166886,
   0.164368,
   0.162916,
   0.161392,
   0.158567,
   0.158966,
   0.157639,
   0.157217,
   0.151537,
   0.153548,
   0.153846,
   0.151076,
   0.152675,
   0.153207,
   0.153095,
   0.160205,
   0.163353,
   0.166849,
   0.163837,
   0.166058,
   0.164380,
   0.159692,
   0.158024,
   0.156377,
   0.153138,
   0.154081,
   0.154049,
   0.154110,
   0.155491,
   0.157237,
   0.156499,
   0.153257,
   0.156032,
   0.157460,
   0.156597,
   0.154987,
   0.153201,
   0.151501,
   0.152843,
   0.152430,
   0.150413,
   0.142405,
   0.149919,
   0.151111,
   0.150183,
   0.150280,
   0.154520,
   0.156525,
   0.155050,
   0.151963,
   0.151803,
   0.157339,
   0.153034,
   0.150143,
   0.149059,
   0.146587,
   0.148371,
   0.145322,
   0.145492,
   0.143807,
   0.145978,
   0.150806,
   0.146229,
   0.152681,
   0.154578,
   0.158911,
   0.155954,
   0.152147,
   0.162481,
   0.161985,
   0.158865,
   0.155643,
   0.146786,
   0.144053,
   0.135605,
   0.139732,
   0.138776,
   0.138055,
   0.139325,
   0.129382,
   0.133546,
   0.125537,
   0.133166,
   0.134508,
   0.130966,
   0.137493,
   0.138133,
   0.149437,
   0.156787,
   0.158040,
   0.157648,
   0.155486,
   0.153452,
   0.141510,
   0.142109,
   0.136779,
   0.130490,
   0.133261,
   0.122364,
   0.129898,
   0.135814,
   0.136588,
   0.133131,
   0.134634,
   0.133638,
   0.135530,
   0.132814,
   0.128335,
   0.133954,
   0.134717,
   0.130549,
   0.137317,
   0.135824,
   0.142490,
   0.132487,
   0.134534,
   0.135944,
   0.133391,
   0.132554,
   0.129896,
   0.127868,
   0.125606,
   0.126842,
   0.127225,
   0.127142,
   0.129306,
   0.130570,
   0.130259,
   0.127378,
   0.126884,
   0.130390,
   0.127749,
   0.130430,
   0.127319,
   0.125917,
   0.124712,
   0.128442,
   0.119889,
   0.120039,
   0.116627,
   0.123353,
   0.125512,
   0.121497,
   0.123762,
   0.125609,
   0.125228,
   0.123830,
   0.126057,
   0.127975,
   0.126356,
   0.127930,
   0.119464,
   0.118589,
   0.120682,
   0.122784,
   0.118097,
   0.116706,
   0.120789,
   0.120816,
   0.123249,
   0.115191,
   0.123822,
   0.123445,
   0.113378,
   0.117836,
   0.115103,
   0.114605,
   0.122121,
   0.120029,
   0.117535,
   0.111204,
   0.124660,
   0.117866,
   0.114331,
   0.115233,
   0.117246,
   0.121383,
   0.112666,
   0.120166,
   0.116572,
   0.115039,
   0.121421,
   0.106002,
   0.113945,
   0.110036,
   0.115981,
   0.113961,
   0.105816,
   0.113409,
   0.116386,
   0.115584,
   0.109543,
   0.112280,
   0.116639,
   0.111713,
   0.117233,
   0.106728,
   0.106886,
   0.115119,
   0.111738,
   0.110431,
   0.111192,
   0.116340,
   0.113457,
   0.107011,
   0.107764,
   0.109147,
   0.116317,
   0.105530,
   0.109625,
   0.100833,
   0.110216,
   0.114714,
   0.108846,
   0.096866,
   0.108580,
   0.112759,
   0.108607,
   0.094086,
   0.094736,
   0.103921,
   0.100110,
   0.095151,
   0.098813,
   0.104314,
   0.109975,
   0.110275,
   0.110192,
   0.101196,
   0.105043,
   0.104358,
   0.097210,
   0.090956,
   0.102539,
   0.099726,
   0.098282,
   0.091382,
   0.101177,
   0.100169,
   0.100773,
   0.101922,
   0.102974,
   0.103291,
   0.102456,
   0.100947,
   0.099469,
   0.098723,
   0.099195,
   0.100505,
   0.102054,
   0.103243,
   0.103641,
   0.103488,
   0.103189,
   0.103152,
   0.103662,
   0.104533,
   0.105459,
   0.106134,
   0.106311,
   0.105992,
   0.105239,
   0.104113,
   0.102706,
   0.101235,
   0.099948,
   0.099093,
   0.098822,
   0.098910,
   0.099036,
   0.098879,
   0.098226,
   0.097287,
   0.096379,
   0.095817,
   0.095838,
   0.096351,
   0.097187,
   0.098173,
   0.099111,
   0.099697,
   0.099596,
   0.098476,
   0.096189,
   0.093331,
   0.090684,
   0.089030,
   0.088934,
   0.090092,
   0.091983,
   0.094085,
   0.095928,
   0.097246,
   0.097823,
   0.097442,
   0.096050,
   0.094247,
   0.092793,
   0.092450,
   0.093677,
   0.095730,
   0.097561,
   0.098122,
   0.096711,
   0.094002,
   0.091012,
   0.088760,
   0.088005,
   0.088481,
   0.089663,
   0.091026,
   0.092128,
   0.092846,
   0.093142,
   0.092976,
   0.092360,
   0.091516,
   0.090717,
   0.090234,
   0.090247,
   0.090548,
   0.090836,
   0.090808,
   0.090274,
   0.089483,
   0.088798,
   0.088581,
   0.089068,
   0.090004,
   0.091008,
   0.091699,
   0.091789,
   0.091360,
   0.090584,
   0.089634
};

#endif
