#ifndef _O9V_H_
#define _O9V_H_

/* spectrum for o9v star           */
/* number of elements = 1895       */

static double _o9v_lambda[] = {
   1150.000000,
   1155.000000,
   1160.000000,
   1165.000000,
   1170.000000,
   1175.000000,
   1180.000000,
   1185.000000,
   1190.000000,
   1195.000000,
   1200.000000,
   1205.000000,
   1210.000000,
   1215.000000,
   1220.000000,
   1225.000000,
   1230.000000,
   1235.000000,
   1240.000000,
   1245.000000,
   1250.000000,
   1255.000000,
   1260.000000,
   1265.000000,
   1270.000000,
   1275.000000,
   1280.000000,
   1285.000000,
   1290.000000,
   1295.000000,
   1300.000000,
   1305.000000,
   1310.000000,
   1315.000000,
   1320.000000,
   1325.000000,
   1330.000000,
   1335.000000,
   1340.000000,
   1345.000000,
   1350.000000,
   1355.000000,
   1360.000000,
   1365.000000,
   1370.000000,
   1375.000000,
   1380.000000,
   1385.000000,
   1390.000000,
   1395.000000,
   1400.000000,
   1405.000000,
   1410.000000,
   1415.000000,
   1420.000000,
   1425.000000,
   1430.000000,
   1435.000000,
   1440.000000,
   1445.000000,
   1450.000000,
   1455.000000,
   1460.000000,
   1465.000000,
   1470.000000,
   1475.000000,
   1480.000000,
   1485.000000,
   1490.000000,
   1495.000000,
   1500.000000,
   1505.000000,
   1510.000000,
   1515.000000,
   1520.000000,
   1525.000000,
   1530.000000,
   1535.000000,
   1540.000000,
   1545.000000,
   1550.000000,
   1555.000000,
   1560.000000,
   1565.000000,
   1570.000000,
   1575.000000,
   1580.000000,
   1585.000000,
   1590.000000,
   1595.000000,
   1600.000000,
   1605.000000,
   1610.000000,
   1615.000000,
   1620.000000,
   1625.000000,
   1630.000000,
   1635.000000,
   1640.000000,
   1645.000000,
   1650.000000,
   1655.000000,
   1660.000000,
   1665.000000,
   1670.000000,
   1675.000000,
   1680.000000,
   1685.000000,
   1690.000000,
   1695.000000,
   1700.000000,
   1705.000000,
   1710.000000,
   1715.000000,
   1720.000000,
   1725.000000,
   1730.000000,
   1735.000000,
   1740.000000,
   1745.000000,
   1750.000000,
   1755.000000,
   1760.000000,
   1765.000000,
   1770.000000,
   1775.000000,
   1780.000000,
   1785.000000,
   1790.000000,
   1795.000000,
   1800.000000,
   1805.000000,
   1810.000000,
   1815.000000,
   1820.000000,
   1825.000000,
   1830.000000,
   1835.000000,
   1840.000000,
   1845.000000,
   1850.000000,
   1855.000000,
   1860.000000,
   1865.000000,
   1870.000000,
   1875.000000,
   1880.000000,
   1885.000000,
   1890.000000,
   1895.000000,
   1900.000000,
   1905.000000,
   1910.000000,
   1915.000000,
   1920.000000,
   1925.000000,
   1930.000000,
   1935.000000,
   1940.000000,
   1945.000000,
   1950.000000,
   1955.000000,
   1960.000000,
   1965.000000,
   1970.000000,
   1975.000000,
   1980.000000,
   1985.000000,
   1990.000000,
   1995.000000,
   2000.000000,
   2005.000000,
   2010.000000,
   2015.000000,
   2020.000000,
   2025.000000,
   2030.000000,
   2035.000000,
   2040.000000,
   2045.000000,
   2050.000000,
   2055.000000,
   2060.000000,
   2065.000000,
   2070.000000,
   2075.000000,
   2080.000000,
   2085.000000,
   2090.000000,
   2095.000000,
   2100.000000,
   2105.000000,
   2110.000000,
   2115.000000,
   2120.000000,
   2125.000000,
   2130.000000,
   2135.000000,
   2140.000000,
   2145.000000,
   2150.000000,
   2155.000000,
   2160.000000,
   2165.000000,
   2170.000000,
   2175.000000,
   2180.000000,
   2185.000000,
   2190.000000,
   2195.000000,
   2200.000000,
   2205.000000,
   2210.000000,
   2215.000000,
   2220.000000,
   2225.000000,
   2230.000000,
   2235.000000,
   2240.000000,
   2245.000000,
   2250.000000,
   2255.000000,
   2260.000000,
   2265.000000,
   2270.000000,
   2275.000000,
   2280.000000,
   2285.000000,
   2290.000000,
   2295.000000,
   2300.000000,
   2305.000000,
   2310.000000,
   2315.000000,
   2320.000000,
   2325.000000,
   2330.000000,
   2335.000000,
   2340.000000,
   2345.000000,
   2350.000000,
   2355.000000,
   2360.000000,
   2365.000000,
   2370.000000,
   2375.000000,
   2380.000000,
   2385.000000,
   2390.000000,
   2395.000000,
   2400.000000,
   2405.000000,
   2410.000000,
   2415.000000,
   2420.000000,
   2425.000000,
   2430.000000,
   2435.000000,
   2440.000000,
   2445.000000,
   2450.000000,
   2455.000000,
   2460.000000,
   2465.000000,
   2470.000000,
   2475.000000,
   2480.000000,
   2485.000000,
   2490.000000,
   2495.000000,
   2500.000000,
   2505.000000,
   2510.000000,
   2515.000000,
   2520.000000,
   2525.000000,
   2530.000000,
   2535.000000,
   2540.000000,
   2545.000000,
   2550.000000,
   2555.000000,
   2560.000000,
   2565.000000,
   2570.000000,
   2575.000000,
   2580.000000,
   2585.000000,
   2590.000000,
   2595.000000,
   2600.000000,
   2605.000000,
   2610.000000,
   2615.000000,
   2620.000000,
   2625.000000,
   2630.000000,
   2635.000000,
   2640.000000,
   2645.000000,
   2650.000000,
   2655.000000,
   2660.000000,
   2665.000000,
   2670.000000,
   2675.000000,
   2680.000000,
   2685.000000,
   2690.000000,
   2695.000000,
   2700.000000,
   2705.000000,
   2710.000000,
   2715.000000,
   2720.000000,
   2725.000000,
   2730.000000,
   2735.000000,
   2740.000000,
   2745.000000,
   2750.000000,
   2755.000000,
   2760.000000,
   2765.000000,
   2770.000000,
   2775.000000,
   2780.000000,
   2785.000000,
   2790.000000,
   2795.000000,
   2800.000000,
   2805.000000,
   2810.000000,
   2815.000000,
   2820.000000,
   2825.000000,
   2830.000000,
   2835.000000,
   2840.000000,
   2845.000000,
   2850.000000,
   2855.000000,
   2860.000000,
   2865.000000,
   2870.000000,
   2875.000000,
   2880.000000,
   2885.000000,
   2890.000000,
   2895.000000,
   2900.000000,
   2905.000000,
   2910.000000,
   2915.000000,
   2920.000000,
   2925.000000,
   2930.000000,
   2935.000000,
   2940.000000,
   2945.000000,
   2950.000000,
   2955.000000,
   2960.000000,
   2965.000000,
   2970.000000,
   2975.000000,
   2980.000000,
   2985.000000,
   2990.000000,
   2995.000000,
   3000.000000,
   3005.000000,
   3010.000000,
   3015.000000,
   3020.000000,
   3025.000000,
   3030.000000,
   3035.000000,
   3040.000000,
   3045.000000,
   3050.000000,
   3055.000000,
   3060.000000,
   3065.000000,
   3070.000000,
   3075.000000,
   3080.000000,
   3085.000000,
   3090.000000,
   3095.000000,
   3100.000000,
   3105.000000,
   3110.000000,
   3115.000000,
   3120.000000,
   3125.000000,
   3130.000000,
   3135.000000,
   3140.000000,
   3145.000000,
   3150.000000,
   3155.000000,
   3160.000000,
   3165.000000,
   3170.000000,
   3175.000000,
   3180.000000,
   3185.000000,
   3190.000000,
   3195.000000,
   3200.000000,
   3205.000000,
   3210.000000,
   3215.000000,
   3220.000000,
   3225.000000,
   3230.000000,
   3235.000000,
   3240.000000,
   3245.000000,
   3250.000000,
   3255.000000,
   3260.000000,
   3265.000000,
   3270.000000,
   3275.000000,
   3280.000000,
   3285.000000,
   3290.000000,
   3295.000000,
   3300.000000,
   3305.000000,
   3310.000000,
   3315.000000,
   3320.000000,
   3325.000000,
   3330.000000,
   3335.000000,
   3340.000000,
   3345.000000,
   3350.000000,
   3355.000000,
   3360.000000,
   3365.000000,
   3370.000000,
   3375.000000,
   3380.000000,
   3385.000000,
   3390.000000,
   3395.000000,
   3400.000000,
   3405.000000,
   3410.000000,
   3415.000000,
   3420.000000,
   3425.000000,
   3430.000000,
   3435.000000,
   3440.000000,
   3445.000000,
   3450.000000,
   3455.000000,
   3460.000000,
   3465.000000,
   3470.000000,
   3475.000000,
   3480.000000,
   3485.000000,
   3490.000000,
   3495.000000,
   3500.000000,
   3505.000000,
   3510.000000,
   3515.000000,
   3520.000000,
   3525.000000,
   3530.000000,
   3535.000000,
   3540.000000,
   3545.000000,
   3550.000000,
   3555.000000,
   3560.000000,
   3565.000000,
   3570.000000,
   3575.000000,
   3580.000000,
   3585.000000,
   3590.000000,
   3595.000000,
   3600.000000,
   3605.000000,
   3610.000000,
   3615.000000,
   3620.000000,
   3625.000000,
   3630.000000,
   3635.000000,
   3640.000000,
   3645.000000,
   3650.000000,
   3655.000000,
   3660.000000,
   3665.000000,
   3670.000000,
   3675.000000,
   3680.000000,
   3685.000000,
   3690.000000,
   3695.000000,
   3700.000000,
   3705.000000,
   3710.000000,
   3715.000000,
   3720.000000,
   3725.000000,
   3730.000000,
   3735.000000,
   3740.000000,
   3745.000000,
   3750.000000,
   3755.000000,
   3760.000000,
   3765.000000,
   3770.000000,
   3775.000000,
   3780.000000,
   3785.000000,
   3790.000000,
   3795.000000,
   3800.000000,
   3805.000000,
   3810.000000,
   3815.000000,
   3820.000000,
   3825.000000,
   3830.000000,
   3835.000000,
   3840.000000,
   3845.000000,
   3850.000000,
   3855.000000,
   3860.000000,
   3865.000000,
   3870.000000,
   3875.000000,
   3880.000000,
   3885.000000,
   3890.000000,
   3895.000000,
   3900.000000,
   3905.000000,
   3910.000000,
   3915.000000,
   3920.000000,
   3925.000000,
   3930.000000,
   3935.000000,
   3940.000000,
   3945.000000,
   3950.000000,
   3955.000000,
   3960.000000,
   3965.000000,
   3970.000000,
   3975.000000,
   3980.000000,
   3985.000000,
   3990.000000,
   3995.000000,
   4000.000000,
   4005.000000,
   4010.000000,
   4015.000000,
   4020.000000,
   4025.000000,
   4030.000000,
   4035.000000,
   4040.000000,
   4045.000000,
   4050.000000,
   4055.000000,
   4060.000000,
   4065.000000,
   4070.000000,
   4075.000000,
   4080.000000,
   4085.000000,
   4090.000000,
   4095.000000,
   4100.000000,
   4105.000000,
   4110.000000,
   4115.000000,
   4120.000000,
   4125.000000,
   4130.000000,
   4135.000000,
   4140.000000,
   4145.000000,
   4150.000000,
   4155.000000,
   4160.000000,
   4165.000000,
   4170.000000,
   4175.000000,
   4180.000000,
   4185.000000,
   4190.000000,
   4195.000000,
   4200.000000,
   4205.000000,
   4210.000000,
   4215.000000,
   4220.000000,
   4225.000000,
   4230.000000,
   4235.000000,
   4240.000000,
   4245.000000,
   4250.000000,
   4255.000000,
   4260.000000,
   4265.000000,
   4270.000000,
   4275.000000,
   4280.000000,
   4285.000000,
   4290.000000,
   4295.000000,
   4300.000000,
   4305.000000,
   4310.000000,
   4315.000000,
   4320.000000,
   4325.000000,
   4330.000000,
   4335.000000,
   4340.000000,
   4345.000000,
   4350.000000,
   4355.000000,
   4360.000000,
   4365.000000,
   4370.000000,
   4375.000000,
   4380.000000,
   4385.000000,
   4390.000000,
   4395.000000,
   4400.000000,
   4405.000000,
   4410.000000,
   4415.000000,
   4420.000000,
   4425.000000,
   4430.000000,
   4435.000000,
   4440.000000,
   4445.000000,
   4450.000000,
   4455.000000,
   4460.000000,
   4465.000000,
   4470.000000,
   4475.000000,
   4480.000000,
   4485.000000,
   4490.000000,
   4495.000000,
   4500.000000,
   4505.000000,
   4510.000000,
   4515.000000,
   4520.000000,
   4525.000000,
   4530.000000,
   4535.000000,
   4540.000000,
   4545.000000,
   4550.000000,
   4555.000000,
   4560.000000,
   4565.000000,
   4570.000000,
   4575.000000,
   4580.000000,
   4585.000000,
   4590.000000,
   4595.000000,
   4600.000000,
   4605.000000,
   4610.000000,
   4615.000000,
   4620.000000,
   4625.000000,
   4630.000000,
   4635.000000,
   4640.000000,
   4645.000000,
   4650.000000,
   4655.000000,
   4660.000000,
   4665.000000,
   4670.000000,
   4675.000000,
   4680.000000,
   4685.000000,
   4690.000000,
   4695.000000,
   4700.000000,
   4705.000000,
   4710.000000,
   4715.000000,
   4720.000000,
   4725.000000,
   4730.000000,
   4735.000000,
   4740.000000,
   4745.000000,
   4750.000000,
   4755.000000,
   4760.000000,
   4765.000000,
   4770.000000,
   4775.000000,
   4780.000000,
   4785.000000,
   4790.000000,
   4795.000000,
   4800.000000,
   4805.000000,
   4810.000000,
   4815.000000,
   4820.000000,
   4825.000000,
   4830.000000,
   4835.000000,
   4840.000000,
   4845.000000,
   4850.000000,
   4855.000000,
   4860.000000,
   4865.000000,
   4870.000000,
   4875.000000,
   4880.000000,
   4885.000000,
   4890.000000,
   4895.000000,
   4900.000000,
   4905.000000,
   4910.000000,
   4915.000000,
   4920.000000,
   4925.000000,
   4930.000000,
   4935.000000,
   4940.000000,
   4945.000000,
   4950.000000,
   4955.000000,
   4960.000000,
   4965.000000,
   4970.000000,
   4975.000000,
   4980.000000,
   4985.000000,
   4990.000000,
   4995.000000,
   5000.000000,
   5005.000000,
   5010.000000,
   5015.000000,
   5020.000000,
   5025.000000,
   5030.000000,
   5035.000000,
   5040.000000,
   5045.000000,
   5050.000000,
   5055.000000,
   5060.000000,
   5065.000000,
   5070.000000,
   5075.000000,
   5080.000000,
   5085.000000,
   5090.000000,
   5095.000000,
   5100.000000,
   5105.000000,
   5110.000000,
   5115.000000,
   5120.000000,
   5125.000000,
   5130.000000,
   5135.000000,
   5140.000000,
   5145.000000,
   5150.000000,
   5155.000000,
   5160.000000,
   5165.000000,
   5170.000000,
   5175.000000,
   5180.000000,
   5185.000000,
   5190.000000,
   5195.000000,
   5200.000000,
   5205.000000,
   5210.000000,
   5215.000000,
   5220.000000,
   5225.000000,
   5230.000000,
   5235.000000,
   5240.000000,
   5245.000000,
   5250.000000,
   5255.000000,
   5260.000000,
   5265.000000,
   5270.000000,
   5275.000000,
   5280.000000,
   5285.000000,
   5290.000000,
   5295.000000,
   5300.000000,
   5305.000000,
   5310.000000,
   5315.000000,
   5320.000000,
   5325.000000,
   5330.000000,
   5335.000000,
   5340.000000,
   5345.000000,
   5350.000000,
   5355.000000,
   5360.000000,
   5365.000000,
   5370.000000,
   5375.000000,
   5380.000000,
   5385.000000,
   5390.000000,
   5395.000000,
   5400.000000,
   5405.000000,
   5410.000000,
   5415.000000,
   5420.000000,
   5425.000000,
   5430.000000,
   5435.000000,
   5440.000000,
   5445.000000,
   5450.000000,
   5455.000000,
   5460.000000,
   5465.000000,
   5470.000000,
   5475.000000,
   5480.000000,
   5485.000000,
   5490.000000,
   5495.000000,
   5500.000000,
   5505.000000,
   5510.000000,
   5515.000000,
   5520.000000,
   5525.000000,
   5530.000000,
   5535.000000,
   5540.000000,
   5545.000000,
   5550.000000,
   5555.000000,
   5560.000000,
   5565.000000,
   5570.000000,
   5575.000000,
   5580.000000,
   5585.000000,
   5590.000000,
   5595.000000,
   5600.000000,
   5605.000000,
   5610.000000,
   5615.000000,
   5620.000000,
   5625.000000,
   5630.000000,
   5635.000000,
   5640.000000,
   5645.000000,
   5650.000000,
   5655.000000,
   5660.000000,
   5665.000000,
   5670.000000,
   5675.000000,
   5680.000000,
   5685.000000,
   5690.000000,
   5695.000000,
   5700.000000,
   5705.000000,
   5710.000000,
   5715.000000,
   5720.000000,
   5725.000000,
   5730.000000,
   5735.000000,
   5740.000000,
   5745.000000,
   5750.000000,
   5755.000000,
   5760.000000,
   5765.000000,
   5770.000000,
   5775.000000,
   5780.000000,
   5785.000000,
   5790.000000,
   5795.000000,
   5800.000000,
   5805.000000,
   5810.000000,
   5815.000000,
   5820.000000,
   5825.000000,
   5830.000000,
   5835.000000,
   5840.000000,
   5845.000000,
   5850.000000,
   5855.000000,
   5860.000000,
   5865.000000,
   5870.000000,
   5875.000000,
   5880.000000,
   5885.000000,
   5890.000000,
   5895.000000,
   5900.000000,
   5905.000000,
   5910.000000,
   5915.000000,
   5920.000000,
   5925.000000,
   5930.000000,
   5935.000000,
   5940.000000,
   5945.000000,
   5950.000000,
   5955.000000,
   5960.000000,
   5965.000000,
   5970.000000,
   5975.000000,
   5980.000000,
   5985.000000,
   5990.000000,
   5995.000000,
   6000.000000,
   6005.000000,
   6010.000000,
   6015.000000,
   6020.000000,
   6025.000000,
   6030.000000,
   6035.000000,
   6040.000000,
   6045.000000,
   6050.000000,
   6055.000000,
   6060.000000,
   6065.000000,
   6070.000000,
   6075.000000,
   6080.000000,
   6085.000000,
   6090.000000,
   6095.000000,
   6100.000000,
   6105.000000,
   6110.000000,
   6115.000000,
   6120.000000,
   6125.000000,
   6130.000000,
   6135.000000,
   6140.000000,
   6145.000000,
   6150.000000,
   6155.000000,
   6160.000000,
   6165.000000,
   6170.000000,
   6175.000000,
   6180.000000,
   6185.000000,
   6190.000000,
   6195.000000,
   6200.000000,
   6205.000000,
   6210.000000,
   6215.000000,
   6220.000000,
   6225.000000,
   6230.000000,
   6235.000000,
   6240.000000,
   6245.000000,
   6250.000000,
   6255.000000,
   6260.000000,
   6265.000000,
   6270.000000,
   6275.000000,
   6280.000000,
   6285.000000,
   6290.000000,
   6295.000000,
   6300.000000,
   6305.000000,
   6310.000000,
   6315.000000,
   6320.000000,
   6325.000000,
   6330.000000,
   6335.000000,
   6340.000000,
   6345.000000,
   6350.000000,
   6355.000000,
   6360.000000,
   6365.000000,
   6370.000000,
   6375.000000,
   6380.000000,
   6385.000000,
   6390.000000,
   6395.000000,
   6400.000000,
   6405.000000,
   6410.000000,
   6415.000000,
   6420.000000,
   6425.000000,
   6430.000000,
   6435.000000,
   6440.000000,
   6445.000000,
   6450.000000,
   6455.000000,
   6460.000000,
   6465.000000,
   6470.000000,
   6475.000000,
   6480.000000,
   6485.000000,
   6490.000000,
   6495.000000,
   6500.000000,
   6505.000000,
   6510.000000,
   6515.000000,
   6520.000000,
   6525.000000,
   6530.000000,
   6535.000000,
   6540.000000,
   6545.000000,
   6550.000000,
   6555.000000,
   6560.000000,
   6565.000000,
   6570.000000,
   6575.000000,
   6580.000000,
   6585.000000,
   6590.000000,
   6595.000000,
   6600.000000,
   6605.000000,
   6610.000000,
   6615.000000,
   6620.000000,
   6625.000000,
   6630.000000,
   6635.000000,
   6640.000000,
   6645.000000,
   6650.000000,
   6655.000000,
   6660.000000,
   6665.000000,
   6670.000000,
   6675.000000,
   6680.000000,
   6685.000000,
   6690.000000,
   6695.000000,
   6700.000000,
   6705.000000,
   6710.000000,
   6715.000000,
   6720.000000,
   6725.000000,
   6730.000000,
   6735.000000,
   6740.000000,
   6745.000000,
   6750.000000,
   6755.000000,
   6760.000000,
   6765.000000,
   6770.000000,
   6775.000000,
   6780.000000,
   6785.000000,
   6790.000000,
   6795.000000,
   6800.000000,
   6805.000000,
   6810.000000,
   6815.000000,
   6820.000000,
   6825.000000,
   6830.000000,
   6835.000000,
   6840.000000,
   6845.000000,
   6850.000000,
   6855.000000,
   6860.000000,
   6865.000000,
   6870.000000,
   6875.000000,
   6880.000000,
   6885.000000,
   6890.000000,
   6895.000000,
   6900.000000,
   6905.000000,
   6910.000000,
   6915.000000,
   6920.000000,
   6925.000000,
   6930.000000,
   6935.000000,
   6940.000000,
   6945.000000,
   6950.000000,
   6955.000000,
   6960.000000,
   6965.000000,
   6970.000000,
   6975.000000,
   6980.000000,
   6985.000000,
   6990.000000,
   6995.000000,
   7000.000000,
   7005.000000,
   7010.000000,
   7015.000000,
   7020.000000,
   7025.000000,
   7030.000000,
   7035.000000,
   7040.000000,
   7045.000000,
   7050.000000,
   7055.000000,
   7060.000000,
   7065.000000,
   7070.000000,
   7075.000000,
   7080.000000,
   7085.000000,
   7090.000000,
   7095.000000,
   7100.000000,
   7105.000000,
   7110.000000,
   7115.000000,
   7120.000000,
   7125.000000,
   7130.000000,
   7135.000000,
   7140.000000,
   7145.000000,
   7150.000000,
   7155.000000,
   7160.000000,
   7165.000000,
   7170.000000,
   7175.000000,
   7180.000000,
   7185.000000,
   7190.000000,
   7195.000000,
   7200.000000,
   7205.000000,
   7210.000000,
   7215.000000,
   7220.000000,
   7225.000000,
   7230.000000,
   7235.000000,
   7240.000000,
   7245.000000,
   7250.000000,
   7255.000000,
   7260.000000,
   7265.000000,
   7270.000000,
   7275.000000,
   7280.000000,
   7285.000000,
   7290.000000,
   7295.000000,
   7300.000000,
   7305.000000,
   7310.000000,
   7315.000000,
   7320.000000,
   7325.000000,
   7330.000000,
   7335.000000,
   7340.000000,
   7345.000000,
   7350.000000,
   7355.000000,
   7360.000000,
   7365.000000,
   7370.000000,
   7375.000000,
   7380.000000,
   7385.000000,
   7390.000000,
   7395.000000,
   7400.000000,
   7405.000000,
   7410.000000,
   7415.000000,
   7420.000000,
   7425.000000,
   7430.000000,
   7435.000000,
   7440.000000,
   7445.000000,
   7450.000000,
   7455.000000,
   7460.000000,
   7465.000000,
   7470.000000,
   7475.000000,
   7480.000000,
   7485.000000,
   7490.000000,
   7495.000000,
   7500.000000,
   7505.000000,
   7510.000000,
   7515.000000,
   7520.000000,
   7525.000000,
   7530.000000,
   7535.000000,
   7540.000000,
   7545.000000,
   7550.000000,
   7555.000000,
   7560.000000,
   7565.000000,
   7570.000000,
   7575.000000,
   7580.000000,
   7585.000000,
   7590.000000,
   7595.000000,
   7600.000000,
   7605.000000,
   7610.000000,
   7615.000000,
   7620.000000,
   7625.000000,
   7630.000000,
   7635.000000,
   7640.000000,
   7645.000000,
   7650.000000,
   7655.000000,
   7660.000000,
   7665.000000,
   7670.000000,
   7675.000000,
   7680.000000,
   7685.000000,
   7690.000000,
   7695.000000,
   7700.000000,
   7705.000000,
   7710.000000,
   7715.000000,
   7720.000000,
   7725.000000,
   7730.000000,
   7735.000000,
   7740.000000,
   7745.000000,
   7750.000000,
   7755.000000,
   7760.000000,
   7765.000000,
   7770.000000,
   7775.000000,
   7780.000000,
   7785.000000,
   7790.000000,
   7795.000000,
   7800.000000,
   7805.000000,
   7810.000000,
   7815.000000,
   7820.000000,
   7825.000000,
   7830.000000,
   7835.000000,
   7840.000000,
   7845.000000,
   7850.000000,
   7855.000000,
   7860.000000,
   7865.000000,
   7870.000000,
   7875.000000,
   7880.000000,
   7885.000000,
   7890.000000,
   7895.000000,
   7900.000000,
   7905.000000,
   7910.000000,
   7915.000000,
   7920.000000,
   7925.000000,
   7930.000000,
   7935.000000,
   7940.000000,
   7945.000000,
   7950.000000,
   7955.000000,
   7960.000000,
   7965.000000,
   7970.000000,
   7975.000000,
   7980.000000,
   7985.000000,
   7990.000000,
   7995.000000,
   8000.000000,
   8005.000000,
   8010.000000,
   8015.000000,
   8020.000000,
   8025.000000,
   8030.000000,
   8035.000000,
   8040.000000,
   8045.000000,
   8050.000000,
   8055.000000,
   8060.000000,
   8065.000000,
   8070.000000,
   8075.000000,
   8080.000000,
   8085.000000,
   8090.000000,
   8095.000000,
   8100.000000,
   8105.000000,
   8110.000000,
   8115.000000,
   8120.000000,
   8125.000000,
   8130.000000,
   8135.000000,
   8140.000000,
   8145.000000,
   8150.000000,
   8155.000000,
   8160.000000,
   8165.000000,
   8170.000000,
   8175.000000,
   8180.000000,
   8185.000000,
   8190.000000,
   8195.000000,
   8200.000000,
   8205.000000,
   8210.000000,
   8215.000000,
   8220.000000,
   8225.000000,
   8230.000000,
   8235.000000,
   8240.000000,
   8245.000000,
   8250.000000,
   8255.000000,
   8260.000000,
   8265.000000,
   8270.000000,
   8275.000000,
   8280.000000,
   8285.000000,
   8290.000000,
   8295.000000,
   8300.000000,
   8305.000000,
   8310.000000,
   8315.000000,
   8320.000000,
   8325.000000,
   8330.000000,
   8335.000000,
   8340.000000,
   8345.000000,
   8350.000000,
   8355.000000,
   8360.000000,
   8365.000000,
   8370.000000,
   8375.000000,
   8380.000000,
   8385.000000,
   8390.000000,
   8395.000000,
   8400.000000,
   8405.000000,
   8410.000000,
   8415.000000,
   8420.000000,
   8425.000000,
   8430.000000,
   8435.000000,
   8440.000000,
   8445.000000,
   8450.000000,
   8455.000000,
   8460.000000,
   8465.000000,
   8470.000000,
   8475.000000,
   8480.000000,
   8485.000000,
   8490.000000,
   8495.000000,
   8500.000000,
   8505.000000,
   8510.000000,
   8515.000000,
   8520.000000,
   8525.000000,
   8530.000000,
   8535.000000,
   8540.000000,
   8545.000000,
   8550.000000,
   8555.000000,
   8560.000000,
   8565.000000,
   8570.000000,
   8575.000000,
   8580.000000,
   8585.000000,
   8590.000000,
   8595.000000,
   8600.000000,
   8605.000000,
   8610.000000,
   8615.000000,
   8620.000000,
   8625.000000,
   8630.000000,
   8635.000000,
   8640.000000,
   8645.000000,
   8650.000000,
   8655.000000,
   8660.000000,
   8665.000000,
   8670.000000,
   8675.000000,
   8680.000000,
   8685.000000,
   8690.000000,
   8695.000000,
   8700.000000,
   8705.000000,
   8710.000000,
   8715.000000,
   8720.000000,
   8725.000000,
   8730.000000,
   8735.000000,
   8740.000000,
   8745.000000,
   8750.000000,
   8755.000000,
   8760.000000,
   8765.000000,
   8770.000000,
   8775.000000,
   8780.000000,
   8785.000000,
   8790.000000,
   8795.000000,
   8800.000000,
   8805.000000,
   8810.000000,
   8815.000000,
   8820.000000,
   8825.000000,
   8830.000000,
   8835.000000,
   8840.000000,
   8845.000000,
   8850.000000,
   8855.000000,
   8860.000000,
   8865.000000,
   8870.000000,
   8875.000000,
   8880.000000,
   8885.000000,
   8890.000000,
   8895.000000,
   8900.000000,
   8905.000000,
   8910.000000,
   8915.000000,
   8920.000000,
   8925.000000,
   8930.000000,
   8935.000000,
   8940.000000,
   8945.000000,
   8950.000000,
   8955.000000,
   8960.000000,
   8965.000000,
   8970.000000,
   8975.000000,
   8980.000000,
   8985.000000,
   8990.000000,
   8995.000000,
   9000.000000,
   9005.000000,
   9010.000000,
   9015.000000,
   9020.000000,
   9025.000000,
   9030.000000,
   9035.000000,
   9040.000000,
   9045.000000,
   9050.000000,
   9055.000000,
   9060.000000,
   9065.000000,
   9070.000000,
   9075.000000,
   9080.000000,
   9085.000000,
   9090.000000,
   9095.000000,
   9100.000000,
   9105.000000,
   9110.000000,
   9115.000000,
   9120.000000,
   9125.000000,
   9130.000000,
   9135.000000,
   9140.000000,
   9145.000000,
   9150.000000,
   9155.000000,
   9160.000000,
   9165.000000,
   9170.000000,
   9175.000000,
   9180.000000,
   9185.000000,
   9190.000000,
   9195.000000,
   9200.000000,
   9205.000000,
   9210.000000,
   9215.000000,
   9220.000000,
   9225.000000,
   9230.000000,
   9235.000000,
   9240.000000,
   9245.000000,
   9250.000000,
   9255.000000,
   9260.000000,
   9265.000000,
   9270.000000,
   9275.000000,
   9280.000000,
   9285.000000,
   9290.000000,
   9295.000000,
   9300.000000,
   9305.000000,
   9310.000000,
   9315.000000,
   9320.000000,
   9325.000000,
   9330.000000,
   9335.000000,
   9340.000000,
   9345.000000,
   9350.000000,
   9355.000000,
   9360.000000,
   9365.000000,
   9370.000000,
   9375.000000,
   9380.000000,
   9385.000000,
   9390.000000,
   9395.000000,
   9400.000000,
   9405.000000,
   9410.000000,
   9415.000000,
   9420.000000,
   9425.000000,
   9430.000000,
   9435.000000,
   9440.000000,
   9445.000000,
   9450.000000,
   9455.000000,
   9460.000000,
   9465.000000,
   9470.000000,
   9475.000000,
   9480.000000,
   9485.000000,
   9490.000000,
   9495.000000,
   9500.000000,
   9505.000000,
   9510.000000,
   9515.000000,
   9520.000000,
   9525.000000,
   9530.000000,
   9535.000000,
   9540.000000,
   9545.000000,
   9550.000000,
   9555.000000,
   9560.000000,
   9565.000000,
   9570.000000,
   9575.000000,
   9580.000000,
   9585.000000,
   9590.000000,
   9595.000000,
   9600.000000,
   9605.000000,
   9610.000000,
   9615.000000,
   9620.000000,
   9625.000000,
   9630.000000,
   9635.000000,
   9640.000000,
   9645.000000,
   9650.000000,
   9655.000000,
   9660.000000,
   9665.000000,
   9670.000000,
   9675.000000,
   9680.000000,
   9685.000000,
   9690.000000,
   9695.000000,
   9700.000000,
   9705.000000,
   9710.000000,
   9715.000000,
   9720.000000,
   9725.000000,
   9730.000000,
   9735.000000,
   9740.000000,
   9745.000000,
   9750.000000,
   9755.000000,
   9760.000000,
   9765.000000,
   9770.000000,
   9775.000000,
   9780.000000,
   9785.000000,
   9790.000000,
   9795.000000,
   9800.000000,
   9805.000000,
   9810.000000,
   9815.000000,
   9820.000000,
   9825.000000,
   9830.000000,
   9835.000000,
   9840.000000,
   9845.000000,
   9850.000000,
   9855.000000,
   9860.000000,
   9865.000000,
   9870.000000,
   9875.000000,
   9880.000000,
   9885.000000,
   9890.000000,
   9895.000000,
   9900.000000,
   9905.000000,
   9910.000000,
   9915.000000,
   9920.000000,
   9925.000000,
   9930.000000,
   9935.000000,
   9940.000000,
   9945.000000,
   9950.000000,
   9955.000000,
   9960.000000,
   9965.000000,
   9970.000000,
   9975.000000,
   9980.000000,
   9985.000000,
   9990.000000,
   9995.000000,
   10000.000000,
   10005.000000,
   10010.000000,
   10015.000000,
   10020.000000,
   10025.000000,
   10030.000000,
   10035.000000,
   10040.000000,
   10045.000000,
   10050.000000,
   10055.000000,
   10060.000000,
   10065.000000,
   10070.000000,
   10075.000000,
   10080.000000,
   10085.000000,
   10090.000000,
   10095.000000,
   10100.000000,
   10105.000000,
   10110.000000,
   10115.000000,
   10120.000000,
   10125.000000,
   10130.000000,
   10135.000000,
   10140.000000,
   10145.000000,
   10150.000000,
   10155.000000,
   10160.000000,
   10165.000000,
   10170.000000,
   10175.000000,
   10180.000000,
   10185.000000,
   10190.000000,
   10195.000000,
   10200.000000,
   10205.000000,
   10210.000000,
   10215.000000,
   10220.000000,
   10225.000000,
   10230.000000,
   10235.000000,
   10240.000000,
   10245.000000,
   10250.000000,
   10255.000000,
   10260.000000,
   10265.000000,
   10270.000000,
   10275.000000,
   10280.000000,
   10285.000000,
   10290.000000,
   10295.000000,
   10300.000000,
   10305.000000,
   10310.000000,
   10315.000000,
   10320.000000,
   10325.000000,
   10330.000000,
   10335.000000,
   10340.000000,
   10345.000000,
   10350.000000,
   10355.000000,
   10360.000000,
   10365.000000,
   10370.000000,
   10375.000000,
   10380.000000,
   10385.000000,
   10390.000000,
   10395.000000,
   10400.000000,
   10405.000000,
   10410.000000,
   10415.000000,
   10420.000000,
   10425.000000,
   10430.000000,
   10435.000000,
   10440.000000,
   10445.000000,
   10450.000000,
   10455.000000,
   10460.000000,
   10465.000000,
   10470.000000,
   10475.000000,
   10480.000000,
   10485.000000,
   10490.000000,
   10495.000000,
   10500.000000,
   10505.000000,
   10510.000000,
   10515.000000,
   10520.000000,
   10525.000000,
   10530.000000,
   10535.000000,
   10540.000000,
   10545.000000,
   10550.000000,
   10555.000000,
   10560.000000,
   10565.000000,
   10570.000000,
   10575.000000,
   10580.000000,
   10585.000000,
   10590.000000,
   10595.000000,
   10600.000000,
   10605.000000,
   10610.000000,
   10615.000000,
   10620.000000
};

static double _o9v_flux[] = {
   179.802002,
   131.910675,
   105.233490,
   101.691246,
   86.662430,
   70.147293,
   78.362907,
   85.207527,
   77.702744,
   68.849564,
   67.268265,
   61.135899,
   45.369308,
   28.861963,
   47.061722,
   69.537415,
   76.168571,
   74.040817,
   73.639435,
   77.914902,
   75.940147,
   76.334549,
   79.712029,
   83.818031,
   84.917282,
   84.950371,
   83.935829,
   82.218506,
   84.083557,
   80.281158,
   74.253761,
   75.847694,
   80.161942,
   79.952248,
   78.024010,
   76.358887,
   75.222664,
   70.153854,
   69.139252,
   68.828400,
   70.513680,
   70.889450,
   68.256683,
   67.369926,
   68.334488,
   66.845787,
   65.646118,
   63.043907,
   57.464581,
   51.727757,
   51.638123,
   53.016109,
   56.261356,
   57.782391,
   55.628418,
   52.151321,
   52.059566,
   56.030888,
   55.218540,
   54.245895,
   53.339615,
   51.114182,
   51.116306,
   53.364700,
   54.569580,
   54.775818,
   54.436646,
   54.796371,
   55.404472,
   53.337784,
   49.071339,
   49.548946,
   51.993652,
   51.202408,
   51.640812,
   47.000557,
   41.938618,
   40.872444,
   38.723423,
   27.390661,
   25.436367,
   36.711403,
   39.077000,
   38.035110,
   39.420124,
   40.673119,
   39.914726,
   40.470734,
   40.370781,
   38.360912,
   37.727009,
   35.692619,
   33.187248,
   32.765545,
   32.249386,
   32.818359,
   32.777611,
   33.048889,
   33.044807,
   34.913635,
   36.738266,
   34.963200,
   33.424103,
   34.422012,
   33.295414,
   33.851238,
   37.084778,
   36.684086,
   34.897095,
   34.289528,
   33.613556,
   33.973125,
   34.270393,
   33.283947,
   30.466631,
   30.447886,
   32.417831,
   33.934410,
   33.787624,
   33.863075,
   33.122540,
   33.458340,
   33.823471,
   32.840515,
   32.740849,
   33.133659,
   32.895294,
   31.523764,
   28.651840,
   29.471903,
   30.697769,
   30.186916,
   30.067715,
   30.626698,
   31.414555,
   31.345531,
   31.124331,
   31.265133,
   30.104235,
   29.615738,
   29.209311,
   28.686716,
   28.717447,
   29.282413,
   28.509161,
   27.226856,
   27.336088,
   26.834608,
   26.554157,
   26.814453,
   26.994553,
   26.672199,
   25.929312,
   24.932613,
   24.151770,
   23.857803,
   25.075621,
   25.585064,
   25.512880,
   25.509493,
   25.282597,
   24.956957,
   24.169029,
   23.616026,
   23.080374,
   23.969954,
   24.299051,
   23.548044,
   22.663961,
   22.537642,
   22.759605,
   22.943035,
   22.437654,
   22.923765,
   22.566818,
   22.694973,
   22.594891,
   22.653690,
   22.678841,
   22.439014,
   22.398272,
   21.071911,
   19.692041,
   20.223734,
   21.244205,
   20.895672,
   20.568859,
   20.753059,
   20.768238,
   20.046516,
   19.765232,
   19.215921,
   19.300461,
   20.234818,
   19.870388,
   19.392368,
   19.306805,
   19.158978,
   19.526342,
   19.220222,
   18.723803,
   18.395657,
   18.317705,
   18.289053,
   17.712465,
   17.903021,
   17.928493,
   18.061028,
   17.915649,
   18.091932,
   17.597321,
   17.210056,
   16.815662,
   16.702831,
   16.363789,
   16.342178,
   16.479040,
   16.199802,
   15.964721,
   15.943511,
   15.973087,
   15.874268,
   15.796679,
   15.732259,
   15.548719,
   15.521976,
   15.455567,
   15.574055,
   15.888752,
   15.480504,
   14.761627,
   14.213152,
   14.762710,
   14.958247,
   15.005971,
   14.877272,
   14.958472,
   15.484849,
   15.202257,
   14.860731,
   14.630497,
   14.648830,
   15.000845,
   15.287478,
   15.147299,
   14.816542,
   14.590626,
   14.201163,
   13.585414,
   13.362177,
   13.586219,
   14.200870,
   14.116563,
   14.187052,
   14.284183,
   13.983757,
   14.186916,
   14.343793,
   14.112788,
   13.755800,
   13.890887,
   14.037315,
   13.879814,
   14.295817,
   14.095819,
   13.423907,
   13.493793,
   13.473615,
   13.289298,
   13.355533,
   13.470635,
   13.327949,
   13.211136,
   12.549574,
   12.567934,
   12.512714,
   13.045125,
   13.423721,
   12.931369,
   12.613271,
   12.932350,
   12.843961,
   12.723427,
   12.605470,
   12.614239,
   12.631711,
   11.003408,
   10.779988,
   11.779220,
   12.153422,
   12.251131,
   11.939261,
   12.200558,
   12.537869,
   12.291729,
   12.580055,
   12.291632,
   12.319071,
   12.282742,
   11.891155,
   11.907295,
   12.027767,
   12.150163,
   11.574048,
   11.417302,
   11.604774,
   11.396873,
   11.253456,
   11.491349,
   11.031239,
   10.761078,
   11.098680,
   11.439222,
   10.887998,
   10.908137,
   10.658556,
   10.662763,
   10.522114,
   10.290498,
   10.359046,
   10.570372,
   10.540690,
   10.527526,
   10.800475,
   10.449298,
   10.261609,
   10.048470,
   9.655764,
   9.735158,
   9.927313,
   9.483753,
   9.242266,
   9.526624,
   9.925543,
   10.034882,
   9.810055,
   9.363921,
   9.321168,
   9.602241,
   9.422405,
   9.459540,
   9.283315,
   9.226878,
   9.403942,
   9.262641,
   9.267987,
   9.246622,
   9.267075,
   9.282087,
   9.388605,
   9.365316,
   9.009614,
   8.961186,
   9.001642,
   8.941417,
   8.954116,
   8.912730,
   8.967319,
   8.755107,
   8.705148,
   8.685121,
   8.778163,
   8.794751,
   8.704057,
   8.826329,
   8.706993,
   8.671144,
   8.415255,
   8.263422,
   8.156643,
   8.259529,
   8.255378,
   8.310946,
   8.104469,
   8.111991,
   7.855338,
   7.688312,
   7.823802,
   7.656194,
   7.539006,
   7.491537,
   7.818552,
   7.852964,
   7.725424,
   7.582837,
   7.608283,
   7.590023,
   7.743467,
   7.642740,
   7.524016,
   7.496709,
   7.654686,
   7.597672,
   7.411123,
   7.332458,
   7.412077,
   7.479474,
   7.629660,
   7.594223,
   7.675559,
   7.695664,
   7.460481,
   7.077505,
   7.212498,
   7.171028,
   7.231513,
   6.941649,
   6.897880,
   6.909435,
   7.000394,
   6.836444,
   6.866449,
   6.891450,
   6.883723,
   6.848712,
   6.808105,
   6.815403,
   6.896111,
   6.931962,
   6.814557,
   6.618790,
   6.453895,
   6.383204,
   6.417828,
   6.405902,
   6.223991,
   6.025348,
   5.978713,
   6.038102,
   6.105685,
   6.090966,
   5.951617,
   5.830625,
   5.864068,
   5.975061,
   6.052459,
   6.061017,
   6.001891,
   5.945948,
   5.949544,
   5.941287,
   5.854568,
   5.769661,
   5.768596,
   5.793545,
   5.772685,
   5.718078,
   5.658770,
   5.607872,
   5.567931,
   5.515162,
   5.434171,
   5.369425,
   5.361516,
   5.375663,
   5.365664,
   5.314999,
   5.231898,
   5.193906,
   5.258392,
   5.332714,
   5.322072,
   5.273076,
   5.247588,
   5.227077,
   5.184284,
   5.137433,
   5.113780,
   5.131240,
   5.192427,
   5.248097,
   5.249017,
   5.233984,
   5.204985,
   5.214263,
   5.208269,
   5.149981,
   5.128026,
   5.099576,
   5.082090,
   5.046709,
   4.990070,
   4.958850,
   4.903082,
   4.837192,
   4.791422,
   4.746284,
   4.706326,
   4.672889,
   4.675636,
   4.654701,
   4.602899,
   4.722000,
   4.731930,
   4.721232,
   4.660798,
   4.594349,
   4.563799,
   4.582631,
   4.663242,
   4.689430,
   4.670171,
   4.652092,
   4.568780,
   4.571796,
   4.571488,
   4.525952,
   4.515226,
   4.476038,
   4.438798,
   4.379843,
   4.250410,
   4.252867,
   4.279961,
   4.244530,
   4.256682,
   4.236881,
   4.177470,
   4.328621,
   4.234580,
   3.971226,
   3.975804,
   4.094583,
   4.066711,
   3.847046,
   4.069523,
   4.367551,
   4.464131,
   4.308129,
   3.924467,
   3.910245,
   4.289580,
   4.485993,
   4.402803,
   4.297223,
   4.337879,
   4.030602,
   3.690389,
   3.998755,
   4.262897,
   4.297220,
   4.294210,
   4.249512,
   4.215694,
   4.180891,
   4.114959,
   3.930176,
   3.529706,
   3.391948,
   3.820857,
   4.052138,
   4.082934,
   4.024302,
   3.970863,
   3.894236,
   3.868313,
   3.804325,
   3.800340,
   3.912069,
   3.940056,
   3.879068,
   3.796173,
   3.619074,
   3.205872,
   2.939538,
   3.347288,
   3.604418,
   3.666036,
   3.680474,
   3.650365,
   3.609957,
   3.566877,
   3.547344,
   3.524203,
   3.422527,
   3.254195,
   3.349139,
   3.466274,
   3.478661,
   3.471686,
   3.479060,
   3.446397,
   3.409473,
   3.358595,
   3.257103,
   3.275728,
   3.280984,
   3.217010,
   3.143388,
   2.922381,
   2.580167,
   2.725138,
   3.047139,
   3.096366,
   3.097110,
   3.154619,
   3.169036,
   3.144145,
   3.080570,
   3.031252,
   3.052255,
   3.056781,
   3.062844,
   3.044852,
   3.013366,
   3.003065,
   2.987261,
   2.933322,
   2.903896,
   2.857404,
   2.791508,
   2.861176,
   2.903151,
   2.889888,
   2.882129,
   2.872687,
   2.861209,
   2.845856,
   2.844592,
   2.819978,
   2.787873,
   2.775260,
   2.758334,
   2.759374,
   2.747196,
   2.726089,
   2.729475,
   2.732354,
   2.729307,
   2.729086,
   2.721085,
   2.695602,
   2.689441,
   2.665627,
   2.647453,
   2.630283,
   2.555856,
   2.337124,
   2.078351,
   2.239759,
   2.464085,
   2.561625,
   2.590703,
   2.562072,
   2.551378,
   2.538481,
   2.509840,
   2.443811,
   2.426435,
   2.472776,
   2.474341,
   2.453790,
   2.418223,
   2.386108,
   2.343643,
   2.286526,
   2.262300,
   2.284734,
   2.316667,
   2.346486,
   2.356567,
   2.351800,
   2.342912,
   2.288798,
   2.147690,
   2.197188,
   2.276385,
   2.297863,
   2.302745,
   2.295157,
   2.282541,
   2.260535,
   2.231165,
   2.217782,
   2.243479,
   2.230242,
   2.197246,
   2.176526,
   2.110006,
   2.131759,
   2.178455,
   2.193279,
   2.194759,
   2.179631,
   2.168025,
   2.158021,
   2.156521,
   2.144668,
   2.127295,
   2.113983,
   2.110371,
   2.100893,
   2.115777,
   2.113995,
   2.104079,
   2.081575,
   2.046628,
   2.037228,
   2.035232,
   1.989615,
   1.955944,
   2.011688,
   2.044791,
   2.030337,
   2.011102,
   2.005546,
   1.946633,
   1.871869,
   1.915352,
   1.975508,
   1.969899,
   1.972119,
   1.943720,
   1.929907,
   1.928491,
   1.910281,
   1.920358,
   1.919759,
   1.918367,
   1.909747,
   1.897803,
   1.876648,
   1.865566,
   1.864982,
   1.867391,
   1.846382,
   1.831580,
   1.839038,
   1.835569,
   1.837627,
   1.824876,
   1.814034,
   1.816770,
   1.800140,
   1.787754,
   1.779593,
   1.782073,
   1.790881,
   1.782617,
   1.753371,
   1.695905,
   1.554173,
   1.375898,
   1.447682,
   1.596848,
   1.630112,
   1.637928,
   1.654759,
   1.680660,
   1.682654,
   1.683663,
   1.676329,
   1.682287,
   1.667402,
   1.606461,
   1.616511,
   1.662570,
   1.658383,
   1.653233,
   1.665190,
   1.651980,
   1.630723,
   1.628090,
   1.617963,
   1.604657,
   1.590060,
   1.592771,
   1.597021,
   1.591578,
   1.583814,
   1.575940,
   1.570900,
   1.545692,
   1.496338,
   1.522195,
   1.532452,
   1.529720,
   1.524303,
   1.527572,
   1.516087,
   1.505078,
   1.497329,
   1.477790,
   1.476387,
   1.473745,
   1.464806,
   1.472051,
   1.483326,
   1.474119,
   1.457052,
   1.457422,
   1.439444,
   1.430522,
   1.432641,
   1.422682,
   1.417745,
   1.413179,
   1.411272,
   1.408279,
   1.410716,
   1.402344,
   1.385631,
   1.381225,
   1.371202,
   1.361934,
   1.365792,
   1.363581,
   1.358028,
   1.352919,
   1.351179,
   1.343198,
   1.336009,
   1.332262,
   1.330103,
   1.315433,
   1.311782,
   1.312792,
   1.297938,
   1.282187,
   1.277460,
   1.281575,
   1.278141,
   1.272724,
   1.266587,
   1.263827,
   1.259104,
   1.243382,
   1.236923,
   1.232834,
   1.229504,
   1.232964,
   1.227909,
   1.222402,
   1.210829,
   1.202054,
   1.208756,
   1.206161,
   1.192307,
   1.184444,
   1.183108,
   1.185528,
   1.181420,
   1.165991,
   1.158150,
   1.159809,
   1.157428,
   1.155017,
   1.142223,
   1.139654,
   1.140437,
   1.131816,
   1.103611,
   1.054195,
   1.072244,
   1.108262,
   1.115253,
   1.117436,
   1.111705,
   1.103192,
   1.092103,
   1.083400,
   1.078562,
   1.072725,
   1.072022,
   1.076849,
   1.069530,
   1.055406,
   1.049201,
   1.049281,
   1.054172,
   1.055655,
   1.045919,
   1.039036,
   1.040257,
   1.031872,
   1.021680,
   1.011314,
   1.003216,
   0.998245,
   1.000596,
   1.004819,
   0.998975,
   1.002320,
   0.999565,
   0.993181,
   0.988456,
   0.982937,
   0.981464,
   0.966224,
   0.957050,
   0.968625,
   0.970218,
   0.968613,
   0.958487,
   0.949852,
   0.944739,
   0.939733,
   0.941763,
   0.942248,
   0.935902,
   0.928721,
   0.923778,
   0.918533,
   0.913051,
   0.910034,
   0.910592,
   0.906362,
   0.906944,
   0.903591,
   0.903819,
   0.890318,
   0.878146,
   0.885744,
   0.888298,
   0.881296,
   0.875717,
   0.874756,
   0.872643,
   0.867897,
   0.859146,
   0.857984,
   0.856079,
   0.857593,
   0.855564,
   0.841898,
   0.823873,
   0.790913,
   0.805957,
   0.816161,
   0.809843,
   0.798672,
   0.801118,
   0.803660,
   0.806906,
   0.820881,
   0.821514,
   0.817870,
   0.808640,
   0.803573,
   0.803883,
   0.805761,
   0.804031,
   0.813307,
   0.806478,
   0.776745,
   0.730833,
   0.768269,
   0.760927,
   0.698470,
   0.702944,
   0.747450,
   0.784313,
   0.779193,
   0.775716,
   0.773962,
   0.774147,
   0.771140,
   0.763542,
   0.757722,
   0.755697,
   0.750215,
   0.745311,
   0.748624,
   0.748975,
   0.745763,
   0.741252,
   0.737736,
   0.735359,
   0.731981,
   0.731336,
   0.725824,
   0.722125,
   0.719495,
   0.716964,
   0.716537,
   0.717149,
   0.714191,
   0.709725,
   0.705138,
   0.706542,
   0.705847,
   0.703966,
   0.704090,
   0.701020,
   0.697391,
   0.697092,
   0.694597,
   0.692310,
   0.692513,
   0.688274,
   0.683275,
   0.683862,
   0.683404,
   0.685086,
   0.677410,
   0.675155,
   0.673271,
   0.673294,
   0.670911,
   0.669259,
   0.668983,
   0.667005,
   0.660839,
   0.656119,
   0.653019,
   0.651802,
   0.650735,
   0.647560,
   0.646502,
   0.645943,
   0.642185,
   0.641690,
   0.647265,
   0.645164,
   0.641645,
   0.639545,
   0.637263,
   0.637013,
   0.637123,
   0.639786,
   0.638538,
   0.636039,
   0.634863,
   0.627846,
   0.618575,
   0.599606,
   0.582565,
   0.589735,
   0.606703,
   0.608195,
   0.605265,
   0.604396,
   0.602261,
   0.601223,
   0.603305,
   0.603794,
   0.603713,
   0.600707,
   0.596934,
   0.592750,
   0.594970,
   0.593178,
   0.589604,
   0.586551,
   0.585945,
   0.581032,
   0.577572,
   0.578709,
   0.579047,
   0.577496,
   0.574153,
   0.571437,
   0.570616,
   0.571765,
   0.571806,
   0.570180,
   0.568521,
   0.565435,
   0.562871,
   0.558700,
   0.556580,
   0.556803,
   0.557245,
   0.553707,
   0.553627,
   0.549706,
   0.550707,
   0.547187,
   0.545655,
   0.547265,
   0.552553,
   0.551908,
   0.549479,
   0.544903,
   0.544772,
   0.541674,
   0.540200,
   0.539130,
   0.537618,
   0.532934,
   0.521770,
   0.490327,
   0.436110,
   0.443542,
   0.494271,
   0.518602,
   0.525727,
   0.528427,
   0.530187,
   0.528427,
   0.526748,
   0.526542,
   0.521413,
   0.518700,
   0.519706,
   0.519829,
   0.516714,
   0.513070,
   0.510028,
   0.508489,
   0.507205,
   0.503246,
   0.499518,
   0.496806,
   0.492215,
   0.473122,
   0.469318,
   0.484168,
   0.489698,
   0.491568,
   0.488504,
   0.489797,
   0.488128,
   0.487853,
   0.489084,
   0.488453,
   0.484324,
   0.479374,
   0.477744,
   0.479497,
   0.476523,
   0.475423,
   0.475500,
   0.473880,
   0.469518,
   0.467821,
   0.468487,
   0.466161,
   0.465169,
   0.463914,
   0.462208,
   0.465468,
   0.462614,
   0.461581,
   0.458949,
   0.456775,
   0.457285,
   0.454496,
   0.454657,
   0.453506,
   0.452356,
   0.451206,
   0.450056,
   0.448906,
   0.447756,
   0.446605,
   0.445455,
   0.444305,
   0.443155,
   0.442005,
   0.440855,
   0.439704,
   0.438554,
   0.437404,
   0.436254,
   0.435104,
   0.433954,
   0.432803,
   0.431653,
   0.430503,
   0.429353,
   0.428203,
   0.427053,
   0.425902,
   0.424752,
   0.430830,
   0.429013,
   0.422128,
   0.418498,
   0.420384,
   0.418524,
   0.417786,
   0.416939,
   0.414836,
   0.413312,
   0.409925,
   0.412177,
   0.413997,
   0.412579,
   0.409559,
   0.409128,
   0.407570,
   0.397010,
   0.382226,
   0.399977,
   0.406076,
   0.404778,
   0.405205,
   0.404854,
   0.403322,
   0.399831,
   0.397542,
   0.398030,
   0.399444,
   0.401816,
   0.403262,
   0.402565,
   0.403909,
   0.400276,
   0.395834,
   0.397244,
   0.396145,
   0.392052,
   0.385893,
   0.373471,
   0.365421,
   0.363590,
   0.356508,
   0.362558,
   0.367817,
   0.365706,
   0.371907,
   0.386366,
   0.391191,
   0.391309,
   0.385865,
   0.375056,
   0.367391,
   0.366488,
   0.366492,
   0.366739,
   0.367278,
   0.368353,
   0.365343,
   0.365604,
   0.356210,
   0.357530,
   0.360256,
   0.355978,
   0.361660,
   0.360646,
   0.355349,
   0.357973,
   0.357508,
   0.359190,
   0.360422,
   0.357266,
   0.356870,
   0.355482,
   0.353674,
   0.353199,
   0.353012,
   0.349685,
   0.349088,
   0.348498,
   0.346757,
   0.345748,
   0.345634,
   0.343586,
   0.341850,
   0.340292,
   0.335842,
   0.335187,
   0.339228,
   0.342152,
   0.331381,
   0.330664,
   0.329590,
   0.330021,
   0.328749,
   0.327015,
   0.326905,
   0.325363,
   0.326838,
   0.325365,
   0.323524,
   0.322129,
   0.321597,
   0.320363,
   0.317458,
   0.319729,
   0.318015,
   0.318030,
   0.315999,
   0.315510,
   0.315737,
   0.316139,
   0.315015,
   0.313748,
   0.310408,
   0.310436,
   0.309678,
   0.308919,
   0.308161,
   0.307402,
   0.306644,
   0.305885,
   0.305127,
   0.304368,
   0.303610,
   0.302851,
   0.302093,
   0.301334,
   0.300576,
   0.299817,
   0.299059,
   0.298300,
   0.297542,
   0.296783,
   0.296025,
   0.295266,
   0.294508,
   0.293749,
   0.292991,
   0.292232,
   0.291474,
   0.290715,
   0.289957,
   0.289198,
   0.288440,
   0.287681,
   0.286923,
   0.286164,
   0.285406,
   0.284647,
   0.283889,
   0.283130,
   0.281912,
   0.281746,
   0.281207,
   0.280224,
   0.281088,
   0.278510,
   0.278009,
   0.277399,
   0.278442,
   0.276321,
   0.275995,
   0.274589,
   0.273702,
   0.272630,
   0.271199,
   0.271911,
   0.270441,
   0.268903,
   0.269377,
   0.268464,
   0.267993,
   0.268178,
   0.267651,
   0.267129,
   0.266469,
   0.268362,
   0.264119,
   0.263792,
   0.262120,
   0.264180,
   0.262134,
   0.260842,
   0.260066,
   0.260526,
   0.260637,
   0.258913,
   0.257290,
   0.257336,
   0.258628,
   0.257915,
   0.255037,
   0.256432,
   0.255809,
   0.256588,
   0.253762,
   0.251889,
   0.253195,
   0.252636,
   0.251841,
   0.250334,
   0.251251,
   0.250548,
   0.249664,
   0.248071,
   0.248028,
   0.247722,
   0.247813,
   0.246291,
   0.246112,
   0.246340,
   0.247715,
   0.246887,
   0.247105,
   0.246382,
   0.245868,
   0.244669,
   0.244219,
   0.243179,
   0.242003,
   0.241519,
   0.242189,
   0.238217,
   0.237276,
   0.236166,
   0.235890,
   0.235504,
   0.235171,
   0.236453,
   0.236671,
   0.237140,
   0.236853,
   0.235884,
   0.233789,
   0.230450,
   0.227321,
   0.223433,
   0.222958,
   0.226917,
   0.227291,
   0.228285,
   0.230878,
   0.229592,
   0.228547,
   0.228786,
   0.228355,
   0.227146,
   0.224847,
   0.222287,
   0.216548,
   0.214006,
   0.220089,
   0.222778,
   0.222738,
   0.223572,
   0.220937,
   0.219930,
   0.219085,
   0.217463,
   0.215581,
   0.214881,
   0.214559,
   0.214136,
   0.214747,
   0.215400,
   0.214802,
   0.214383,
   0.213069,
   0.211583,
   0.212686,
   0.210649,
   0.208179,
   0.208023,
   0.208240,
   0.207419,
   0.206291,
   0.206081,
   0.206156,
   0.205156,
   0.204811,
   0.203897,
   0.204458,
   0.204768,
   0.206445,
   0.205428,
   0.205673,
   0.207196,
   0.207437,
   0.205388,
   0.203217,
   0.202727,
   0.200282,
   0.198796,
   0.198433,
   0.198332,
   0.199264,
   0.199205,
   0.197800,
   0.196332,
   0.195597,
   0.195732,
   0.195486,
   0.196883,
   0.197542,
   0.198104,
   0.197666,
   0.197200,
   0.196312,
   0.195464,
   0.195393,
   0.195074,
   0.193740,
   0.193594,
   0.194055,
   0.192682,
   0.192058,
   0.191612,
   0.191785,
   0.190536,
   0.189383,
   0.187209,
   0.185666,
   0.183714,
   0.181666,
   0.180841,
   0.181674,
   0.183916,
   0.186792,
   0.186443,
   0.187061,
   0.186624,
   0.185755,
   0.184000,
   0.182723,
   0.180546,
   0.179420,
   0.177619,
   0.176717,
   0.177200,
   0.178788,
   0.180068,
   0.181238,
   0.181462,
   0.182053,
   0.182862,
   0.183056,
   0.181831,
   0.181699,
   0.181171,
   0.180401,
   0.179533,
   0.178452,
   0.178373,
   0.176061,
   0.174009,
   0.173528,
   0.174346,
   0.174052,
   0.173720,
   0.172094,
   0.171407,
   0.173491,
   0.174114,
   0.175925,
   0.176131,
   0.177771,
   0.178166,
   0.176389,
   0.175244,
   0.172481,
   0.170322,
   0.168269,
   0.166892,
   0.164711,
   0.163300,
   0.163631,
   0.163950,
   0.162362,
   0.164468,
   0.166124,
   0.165427,
   0.167251,
   0.166339,
   0.166067,
   0.166513,
   0.166938,
   0.167977,
   0.168384,
   0.167244,
   0.167654,
   0.165298,
   0.163371,
   0.163565,
   0.164475,
   0.164330,
   0.164660,
   0.164974,
   0.161626,
   0.159167,
   0.156599,
   0.153500,
   0.150612,
   0.148396,
   0.150899,
   0.149754,
   0.149959,
   0.150193,
   0.148422,
   0.150559,
   0.150791,
   0.156867,
   0.158598,
   0.159559,
   0.160934,
   0.161859,
   0.162712,
   0.160713,
   0.157329,
   0.154123,
   0.152847,
   0.151932,
   0.150898,
   0.151097,
   0.151759,
   0.153470,
   0.155002,
   0.154861,
   0.154628,
   0.155497,
   0.155653,
   0.152615,
   0.152248,
   0.154293,
   0.154363,
   0.151737,
   0.148959,
   0.149773,
   0.150278,
   0.149136,
   0.145441,
   0.145987,
   0.147233,
   0.150070,
   0.148896,
   0.148180,
   0.147938,
   0.145196,
   0.142338,
   0.138642,
   0.137217,
   0.135270,
   0.137860,
   0.139337,
   0.138868,
   0.139221,
   0.143556,
   0.144514,
   0.145596,
   0.147255,
   0.150952,
   0.151327,
   0.149545,
   0.147892,
   0.144266,
   0.139718,
   0.139188,
   0.136696,
   0.131684,
   0.132901,
   0.130578,
   0.131990,
   0.124868,
   0.120347,
   0.121008,
   0.128194,
   0.125310,
   0.133107,
   0.133146,
   0.133656,
   0.138244,
   0.138345,
   0.142978,
   0.149342,
   0.151265,
   0.146931,
   0.142753,
   0.136347,
   0.133856,
   0.129190,
   0.124257,
   0.124013,
   0.126629,
   0.123487,
   0.128221,
   0.136588,
   0.132509,
   0.131067,
   0.135667,
   0.132081,
   0.131949,
   0.129505,
   0.133673,
   0.134725,
   0.129329,
   0.128296,
   0.133663,
   0.134387,
   0.126200,
   0.123549,
   0.121631,
   0.118332,
   0.122159,
   0.117010,
   0.118020,
   0.120844,
   0.119386,
   0.124569,
   0.127350,
   0.131608,
   0.129825,
   0.129078,
   0.129917,
   0.129750,
   0.129869,
   0.127250,
   0.129395,
   0.129883,
   0.125889,
   0.123793,
   0.122097,
   0.125510,
   0.130678,
   0.123938,
   0.125219,
   0.125116,
   0.131156,
   0.125904,
   0.122762,
   0.121883,
   0.124377,
   0.123500,
   0.119707,
   0.121075,
   0.120747,
   0.122421,
   0.123420,
   0.122223,
   0.118083,
   0.123849,
   0.121528,
   0.123192,
   0.119076,
   0.119751,
   0.120820,
   0.122050,
   0.119777,
   0.119942,
   0.121226,
   0.119395,
   0.116264,
   0.113748,
   0.111839,
   0.117743,
   0.120455,
   0.117256,
   0.119882,
   0.116877,
   0.116169,
   0.116745,
   0.114142,
   0.116852,
   0.117466,
   0.115863,
   0.115726,
   0.114678,
   0.116396,
   0.117107,
   0.114929,
   0.112779,
   0.115458,
   0.111722,
   0.115487,
   0.111379,
   0.112776,
   0.114079,
   0.111718,
   0.110904,
   0.111130,
   0.111044,
   0.113412,
   0.110320,
   0.110220,
   0.106491,
   0.110058,
   0.107771,
   0.107095,
   0.111378,
   0.108505,
   0.111322,
   0.106010,
   0.112711,
   0.113279,
   0.115336,
   0.108018,
   0.113873,
   0.110378,
   0.112801,
   0.111755,
   0.113268,
   0.100607,
   0.107089,
   0.099649,
   0.095828,
   0.090112,
   0.097663,
   0.103776,
   0.099869,
   0.100252,
   0.101291,
   0.105513,
   0.105647,
   0.105553,
   0.103703,
   0.097551,
   0.103978,
   0.105324,
   0.099488,
   0.099061,
   0.107413,
   0.103952,
   0.100140,
   0.100131,
   0.103740,
   0.103952,
   0.104004,
   0.104131,
   0.104566,
   0.105457,
   0.106610,
   0.107743,
   0.108575,
   0.108877,
   0.108631,
   0.107872,
   0.106633,
   0.105010,
   0.103327,
   0.101969,
   0.101323,
   0.101594,
   0.102275,
   0.102681,
   0.102127,
   0.100199,
   0.097565,
   0.095168,
   0.093947,
   0.094533,
   0.096322,
   0.098395,
   0.099839,
   0.099980,
   0.099124,
   0.097822,
   0.096622,
   0.095970,
   0.095893,
   0.096315,
   0.097159,
   0.098295,
   0.099385,
   0.100035,
   0.099852,
   0.098624,
   0.096854,
   0.095223,
   0.094414,
   0.094868,
   0.096062,
   0.097232,
   0.097614,
   0.096688,
   0.094912,
   0.092988,
   0.091618,
   0.091301,
   0.091727,
   0.092381,
   0.092750,
   0.092472,
   0.091802,
   0.091147,
   0.090916,
   0.091421,
   0.092599,
   0.094293,
   0.096345,
   0.098526,
   0.100322,
   0.101147,
   0.100414,
   0.097819,
   0.094181,
   0.090602,
   0.088182,
   0.087694,
   0.088581,
   0.089959,
   0.090943,
   0.090910,
   0.090288,
   0.089768,
   0.090039,
   0.091525,
   0.093574,
   0.095270,
   0.095694,
   0.094250,
   0.091632,
   0.088859,
   0.086945,
   0.086626,
   0.087510,
   0.088924,
   0.090193,
   0.090792,
   0.090777,
   0.090353,
   0.089724
};

#endif
